time,Fp1,Fp2,C3,C4
0.0,8.19906071895523,2.230653348668585,-0.02804461641818462,5.1010213582491355
0.00390625,9.107807956520123,4.034878495389892,-1.9020260340373123,6.852263572231653
0.0078125,8.325933390430789,3.215960426742653,-2.506133863977071,5.165425859886611
0.01171875,10.08275867989099,4.853726277207623,-3.400099600406936,5.980486473750879
0.015625,11.141297661145323,4.922370736613622,-5.085927380616885,6.726185872625481
0.01953125,6.792702791186958,4.642422434189523,-5.580684863200191,8.664181800654282
0.0234375,4.785531450398528,5.714776598926426,-6.757659708742552,8.992852620059473
0.02734375,4.170989729293173,7.435025497741032,-7.586466321595743,5.63832283245276
0.03125,0.6702770544545884,5.696051456780971,-7.909948675292255,3.2110636660819294
0.03515625,-0.4222903758080423,5.174579013851773,-6.7077435639738185,1.9362494635911278
0.0390625,-4.540008000123517,2.516663588023336,-6.157715710693181,-1.873665273176138
0.04296875,-6.503021060378718,2.0479168858501486,-2.565469351860986,-4.622529288881836
0.046875,-5.328921142051298,-0.9880448021065606,-2.376231108365701,-6.12843964442142
0.05078125,-4.37364670951405,-1.1799044846364881,1.6400993911448536,-6.716245723147061
0.0546875,-6.016811672605809,-6.086601218480256,3.5941761865964943,-10.033464802273665
0.05859375,-3.812318852152938,-3.153536682125244,4.899183947164643,-8.408015807314092
0.0625,-1.5896385471348626,-3.88095873366039,2.9377455437330693,-7.956104435306371
0.06640625,-1.9446865891245313,-3.790986252089781,3.2038052410585447,-6.593111459101355
0.0703125,-2.416481839938241,-2.58492744370479,1.5973713042908713,-6.637684739062887
0.07421875,-1.029924421619472,-1.6385572275288105,1.3162264300652964,-6.028593316871584
0.078125,-2.5494778692470113,0.2036130576802927,-0.7769805291207681,-4.896831510657991
0.08203125,-1.9907445495117082,1.9461628598569038,-1.1484902771475003,-1.223311591229775
0.0859375,-2.0490450684618446,2.9061882905856846,-0.33027159771334685,-3.1518995901230475
0.08984375,-1.1797629019035265,3.1748438396008862,0.2726597841353634,-0.784721923977993
0.09375,-0.5648155014169003,2.7280921594239556,-2.9902573949244458,-1.2380934596466941
0.09765625,-0.22233999829921447,3.10497493081436,-0.9402125723026487,-2.6159445864626494
0.1015625,2.299822205079633,3.8843418423189324,-1.6937994799689053,1.8812887255771797
0.10546875,1.8079701977789613,1.090260871012321,0.8749235842444065,0.10198459994703557
0.109375,3.6799311091452616,1.1588117347542952,-0.2605398133343372,2.161086308224126
0.11328125,4.25746991308604,-0.41421162807181233,-1.7467994635768442,4.468549853689689
0.1171875,3.3193878910177075,-0.08153189855215554,-1.7891370945874727,4.836828963098023
0.12109375,0.3175940203721659,-0.18483525026577866,-2.950216077146162,5.882958682472709
0.125,0.771741212342719,-1.872360185250042,-4.327889721932889,5.184527288633559
0.12890625,-2.0453704161100994,-0.7556116382315161,-4.038181323684041,2.458845373171496
0.1328125,-3.361922716329222,-0.4901281982748697,-1.823925246023087,1.933786029905124
0.13671875,-5.367558906530626,-0.5428192778583707,0.009647787587849899,0.9612164859267296
0.140625,-4.851144743496382,-4.660037630839,0.05490208791295248,-0.2137411959504607
0.14453125,-5.889459957024793,-3.0186529074513913,2.1674845984893754,-1.488353314825787
0.1484375,-5.68638214948584,-4.6533336556924185,4.4591709395439665,-2.5782155499984913
0.15234375,-2.9958410605080203,-7.658722284239444,6.771369205881081,-1.9724179749367425
0.15625,-3.1495404244505765,-8.755839885547736,7.495837060867245,-5.67997808595036
0.16015625,-0.3347265804716806,-8.343756556760408,8.212882549469098,-4.304943022798141
0.1640625,0.3404339075343805,-5.445889647613093,7.2039896347901555,0.0845847856628894
0.16796875,2.0434095475732237,-3.6216360848122204,6.964725546869215,-0.3705820304922393
0.171875,3.747062481580702,-1.4910127338620327,5.119055803166476,-2.187273796408524
0.17578125,2.476200989398876,-1.3104576500719904,5.002113668481526,1.7085285960648553
0.1796875,3.886316600608758,1.194148187896793,2.1162202334843894,1.8945975114970073
0.18359375,3.2350580304464636,3.1565161004263844,-1.2717760993009557,3.268283784417127
0.1875,5.693185566637625,6.455409027363133,1.3486225691649036,3.1423825253280198
0.19140625,4.628394181222673,8.098686385137311,-1.7613365078994727,2.9815860493207236
0.1953125,6.740425363771789,5.8577042676023225,-1.8214950685796951,2.6750906676516912
0.19921875,5.786605984915992,4.979793528075742,-3.2958802221707297,4.104341319853896
0.203125,5.734476814451809,4.961222050883106,-4.973933258462252,3.5112733527830366
0.20703125,7.4201454814587455,4.798453782186172,-4.892398189007177,4.926844569317881
0.2109375,7.165004242283498,6.316133866404794,-7.105661597603979,5.159354036381767
0.21484375,6.036656313205896,6.541881266765425,-7.553709252343227,3.895508046808912
0.21875,5.613818767272753,4.637135123407732,-8.094175079458214,3.148003576667888
0.22265625,1.8026305284130788,5.618177179980925,-7.704645086228879,4.144788330809596
0.2265625,0.7323307283463545,4.721445672160777,-9.075864652796403,3.7151634411667054
0.23046875,-2.45188100587205,6.167711587919973,-9.220350765691451,0.8708835470602472
0.234375,-6.224039668296882,3.2405225870542935,-3.4951496333503376,-1.1802671963121039
0.23828125,-9.061001469372313,0.5936319224030335,-3.5852280534046717,-2.5327103790729337
0.2421875,-8.632982509198536,1.9873142312287637,-1.5393431726025502,-4.557801378839032
0.24609375,-8.810910617904506,-3.7258913962564932,-1.6415333505681557,-7.052218946625618
0.25,-8.73396072697493,-4.404968611680737,3.193685112863302,-7.104824438300273
0.25390625,-6.852481514364581,-7.470389860104328,4.111994215525774,-9.47898674599392
0.2578125,-5.598760888619161,-7.244986793348109,6.554556554976357,-8.467522543697681
0.26171875,-5.508689035566144,-9.384967272825493,6.4320351663647495,-7.226368756084594
0.265625,-4.882811456102333,-7.80324274312798,4.707935497561914,-6.525963060883942
0.26953125,-2.5370603926230597,-7.678049361547465,6.945739414569503,-4.2505899466599075
0.2734375,-3.034930926163343,-4.411600821729746,5.812752258613337,-5.118911802959811
0.27734375,-1.2085220508259806,-2.8917393996747394,3.916435072303439,-2.201265853369751
0.28125,-0.18259302890396656,-3.2278466891452173,3.1245687531617867,0.5705961105521772
0.28515625,-0.08802377223150992,0.42006670633881504,2.7131734193334336,1.003162671898318
0.2890625,0.6413148406997417,1.7133492764714482,2.3607959147609288,0.8939718020106403
0.29296875,1.5870511644941465,0.886239009228737,0.8562189513931893,2.4306260386057015
0.296875,2.4406260066695733,1.2027511440241079,2.861498498255943,1.9340970799075898
0.30078125,3.244318633887673,1.5101344217563486,2.8406252268989327,3.2710862791595066
0.3046875,4.5968408733322885,0.6381032478862299,0.7343474159833908,2.668961802313003
0.30859375,6.626621147270018,0.7541517750910715,1.094930446072181,5.165969049201861
0.3125,7.57262174965718,2.191205709081773,2.1242668073666033,5.345973068201919
0.31640625,4.8430344750081815,0.3044174263271954,-2.445237542425006,7.666288124943171
0.3203125,5.747445551483598,3.569112564677509,-0.22374460044042666,8.092561733938101
0.32421875,3.5086649704347503,2.4749579594430777,-3.071105568309036,8.140459129896113
0.328125,2.9427085268982713,2.3817184588930047,-4.367727942597938,8.006600888291915
0.33203125,1.4090866749083053,1.1821241569110947,-5.314409547906007,6.130998473135568
0.3359375,-1.073788667614209,3.792540423571207,-2.8271561025240772,4.532762379724029
0.33984375,-1.2990600974796769,-0.26955895359577775,-1.277719518971547,0.9656938158623104
0.34375,-2.518198710575672,-0.43752328421814357,2.505192653632691,-0.3402997456930943
0.34765625,-3.717921475083174,-3.176784734897801,2.4864676395380685,-3.6576658765059267
0.3515625,-2.436579276136466,-2.698007463660308,2.0757220181213176,-4.7918543045781945
0.35546875,-0.8353788630163641,-4.58902475576995,4.107840676778015,-4.904377409313167
0.359375,-0.4230268970514752,-5.326662583472644,2.513591022501946,-5.25220267693008
0.36328125,-0.40710770698207543,-4.072277977856252,4.138018299689917,-5.501015390161159
0.3671875,1.9796640224299804,-3.2210452710296624,2.7885118517494036,-3.0717179135022503
0.37109375,0.4517786392878169,-2.4988850306938266,2.391227723093631,-0.16544404537918522
0.375,0.18768213854855986,1.362249965391143,-0.534504576252193,-2.0009837481491184
0.37890625,1.5738900652721053,5.189634713658817,-0.8342246441832532,-1.0685148927220112
0.3828125,0.2854084584156613,3.6502241935546373,-1.7455638355915246,0.5731668521364699
0.38671875,2.8680072837949515,4.156675172019353,-4.667498487416188,1.2824803170818717
0.390625,0.17284910892437977,6.729000874555468,-3.4527524883258325,0.015881494717700506
0.39453125,1.2415679852758519,4.806149668833079,-0.8004985278348347,-1.9712756080889433
0.3984375,1.665238267138208,5.450355955143904,-3.996279669640986,-0.5309326167061765
0.40234375,2.988258469575337,5.1259736265698574,-3.0296058434812165,-0.3673217197435793
0.40625,4.747163134667726,4.525051018976032,-3.4235080116555157,-0.7635420718520217
0.41015625,3.0354138675217546,4.300167088767451,-4.565800301737992,3.3600774026884004
0.4140625,3.1414485172569475,5.269023838106576,-6.959003498413092,3.119977580131044
0.41796875,0.6412670060604916,3.6285544601009283,-5.289596249663418,2.2273714407154346
0.421875,0.2536689468846123,1.736064712695231,-5.422151309007963,1.9036395493200629
0.42578125,-3.8062358216695715,1.7156561988742276,-7.208858774085643,1.521344541742315
0.4296875,-4.180140069464427,-0.580780709417398,-5.712599045884478,0.05573343980312262
0.43359375,-6.58108776549401,0.537463187753516,-4.56337347604343,0.38385268217898705
0.4375,-5.909308990279982,-1.3137655373920067,-2.360211735766875,-0.7523745630506034
0.44140625,-6.627424518458649,-3.0692404280869923,-0.4826093880817316,-3.4384062565551945
0.4453125,-8.557330970532918,-4.477060246536435,4.1638260580734725,-6.358861450956162
0.44921875,-8.245474310789097,-8.375286138593067,2.978162619905639,-6.684984280205212
0.453125,-7.519726293100708,-10.812290657083475,7.9845356811965145,-6.464446465393012
0.45703125,-5.783167757021086,-10.47511940011934,9.319958364243963,-6.606719284019045
0.4609375,-3.726042491648519,-10.754658854724019,10.380179047357442,-5.655547823167886
0.46484375,-2.334867000471864,-10.747829386126131,8.895408339371153,-3.908401802930968
0.46875,-0.512590358893996,-7.295797219974594,7.432014464222881,-2.6166980148258374
0.47265625,0.17223680583385415,-4.600699177769725,6.798041495789529,-0.3922797204203294
0.4765625,0.006568108918692417,-2.791944741795202,7.428924783398535,0.8017146570922954
0.48046875,1.6909422486004688,-0.2959624180239183,6.166686508763833,3.027354935589783
0.484375,1.781009685530585,2.2931952221706,3.713958097970259,4.187905322500371
0.48828125,5.341283851921292,2.590623935621743,3.453379308142509,4.264163091938016
0.4921875,5.3008778486934665,2.905619912463319,2.20773070481044,4.417333523035416
0.49609375,4.763499989228577,2.566519244883139,-0.556447130005278,3.3103942827148636
0.5,6.2907333326944945,4.973947390284637,0.7672378356603061,4.014753510973419
0.50390625,7.680522512662584,5.652025616850636,0.7872247394527017,6.560440866867934
0.5078125,9.137598023151705,3.6780693434885903,-2.8844229346652828,7.885859020912445
0.51171875,8.312461150490652,4.694956791893499,-2.5042466741221516,8.286621561616967
0.515625,9.215414477494638,3.2492539466427983,-3.9560347235002435,8.467349413641799
0.51953125,7.279795787682225,6.417023120147708,-4.01250672884918,6.83108832576793
0.5234375,6.718238145183156,3.762619401485516,-7.398614320770066,7.406303425291175
0.52734375,2.2713416506534574,7.505325908586805,-6.16389185095325,6.906205370640374
0.53125,-0.2230714346677223,5.930481990369716,-8.62064997945165,3.4115394267622308
0.53515625,-1.0911691922719025,3.843747993958811,-5.545095708789282,2.1216949064832074
0.5390625,-4.079416088468659,2.716161754053477,-5.697375004135252,-1.7531032268051758
0.54296875,-3.237776863290215,1.5104528735769445,-2.416799189353976,-2.3508273166709914
0.546875,-6.3179347690815595,-0.2902424375612061,-0.5132991727886054,-6.011461728445477
0.55078125,-7.7700421958196575,-1.5497824690362374,1.8540949960786697,-8.458732177648647
0.5546875,-4.649649777839724,-3.4941407001999703,1.740081741216005,-7.384176934263773
0.55859375,-2.839596341619349,-3.7059877677378594,4.37891206402127,-5.759084027427155
0.5625,-2.7433754586954664,-6.186842848336079,3.01252432824894,-6.539320836950221
0.56640625,-2.488968356186725,-4.473595947117121,3.2125293154453414,-6.966862158435164
0.5703125,-1.9356462994909784,-2.4745349109180004,2.449938517034152,-5.431114756501955
0.57421875,-2.654117970886184,-1.6054502044092713,3.387402544195708,-4.172806448501195
0.578125,-2.037590521412403,-0.4304610746421714,0.8829474607944877,-3.4245216086571357
0.58203125,-2.3167424278173265,3.317297847441956,-0.7538135145692322,-3.1828743885112414
0.5859375,-0.9137641225078754,2.5567205069053105,0.5403689999640962,-1.0594486917143087
0.58984375,-1.3982108060229788,3.127942960432259,-0.5717428499900318,-0.690404393356965
0.59375,-0.7709782239416292,3.072510129073185,0.8373392517142703,-1.8775870797897642
0.59765625,-0.5162806299889551,3.1594017591341284,-1.3307284072172951,0.29470040080594684
0.6015625,1.4953775992343212,0.9938436683067552,-0.1681227456667962,-0.2670195502065819
0.60546875,2.7267669188106787,-0.2234893805158511,-0.11670105053108726,1.7165433528020255
0.609375,3.3668201483699285,0.4599383453958092,-3.088539502715564,3.2252101229268457
0.61328125,2.9967186197798714,2.097023634366205,-2.6776900262050733,2.6069456259402557
0.6171875,2.1275224670358224,-1.56184932488963,-1.8192429596491135,4.511776948612849
0.62109375,2.4959343189728833,-0.7821592581952493,-2.9662471236443246,4.959401001618716
0.625,-0.17890433921703963,-0.5673771152933605,-3.0343287791506977,4.101744159509394
0.62890625,-0.23035288483972893,-0.2922737209497678,-2.541693189551043,4.913651991110029
0.6328125,-5.264865401149855,-1.6542649974360746,-1.8975256288306424,3.8406646915317624
0.63671875,-5.052391792366022,-0.6093929842534846,-2.2081004349329345,2.4758940939813194
0.640625,-5.0110086457640275,-3.309582395743737,0.4001227291107923,0.4674864277264759
0.64453125,-5.480952169100695,-6.479687860746557,3.7540943464580816,-2.2408417364550526
0.6484375,-5.36777922782197,-6.564263647216956,4.925749165136939,-2.748773223111262
0.65234375,-3.2039662470131085,-7.396479837578655,7.3522413406086295,-5.64625357673587
0.65625,-2.7305610666377342,-7.992573577248381,7.161106865788254,-2.4592010742611214
0.66015625,0.4617907485396342,-6.61239819839452,8.622700390792698,-2.085312152492433
0.6640625,1.493195429485782,-8.117595745528979,9.124235079393747,-2.4839444176418954
0.66796875,4.544043584395791,-5.849497723543991,6.220247419918344,-1.3085918902688731
0.671875,3.332781450606636,-1.4475586253326451,4.833681643197584,1.9598433023791357
0.67578125,2.5721188020492742,-0.15279663124888593,1.6652182434397842,2.3723182231717175
0.6796875,3.8780595829679347,1.8508124004226478,1.5231323172262836,4.388350629548994
0.68359375,3.9681378994909355,3.824174939595216,0.2562972324189742,4.246236364878593
0.6875,3.272773101520661,5.820854787488271,0.139262498411298,5.072969661384895
0.69140625,5.356565463760868,4.565242270003756,-1.573918133930429,2.9203799031256295
0.6953125,7.804023510144441,5.909006181287199,-3.2600737253178593,3.5527460780271074
0.69921875,6.739951308304748,6.3498130385862535,-1.4731668501035966,2.6597693330068144
0.703125,6.916497950973134,7.550533552174227,-5.088754615840776,4.2176764957943575
0.70703125,8.024395739252972,7.161948048682003,-4.827727334968925,4.086810482513294
0.7109375,6.54994470605399,3.3576237477738564,-5.605194695854458,2.926505117257521
0.71484375,6.156704005997831,5.959159841551359,-6.477716522209545,3.0665144466847014
0.71875,3.472545615598231,4.317128984966534,-7.792041698186995,4.617330950646946
0.72265625,1.8590590814321428,5.252515516383039,-8.618962123353992,3.45539174214177
0.7265625,-1.045255430313186,5.115930131996797,-8.38343674919527,2.5507273483197594
0.73046875,-2.2080310944194874,4.1544710262600155,-8.512648962847836,2.374362073555078
0.734375,-5.329691977803113,5.532237339285009,-7.618658673589666,0.2604573964963679
0.73828125,-7.848179964931506,1.3966731665657046,-3.4900511865190817,-2.203642581310551
0.7421875,-8.884034710844157,-2.6285235848943005,-1.8991525296745073,-5.9681999318331584
0.74609375,-9.35360660083955,-2.4993577899472332,0.5144490062210377,-8.388747413624786
0.75,-9.517446152853235,-5.278061888625745,2.7297349048768327,-9.18355027561335
0.75390625,-7.662813781532224,-6.68708046940495,5.1764160225629405,-8.542809134567605
0.7578125,-6.26803460146755,-7.461907567007517,5.46044494375988,-8.505224404365599
0.76171875,-2.8675040936445764,-8.17936771158114,7.717329436239419,-8.055801315196888
0.765625,-4.954702936845816,-6.336394652780731,5.3149013712480855,-8.036848666600658
0.76953125,-3.923319525150645,-4.749206965030516,7.026274616499094,-6.447194302843546
0.7734375,-2.81146337218907,-4.684002480973057,5.618351926634833,-3.5209779350504813
0.77734375,-2.965725025072734,-2.3298178075418967,4.623349183703578,-2.439583277168837
0.78125,-0.5429949295857245,-2.0199130156663303,3.120837680079317,-0.34106668761875314
0.78515625,0.5607600302374229,0.27621334993388735,2.8936033487834525,1.7141551356398228
0.7890625,-0.46566779868284525,2.7066161154092674,5.187171002310642,2.7542375702851447
0.79296875,2.0954703254448046,2.0842978411123694,2.7711108745722965,0.48456945689856235
0.796875,3.2721795420247144,-0.697738679700658,1.5117776297028998,0.6556034671792326
0.80078125,3.675892599821098,1.0143259944126883,0.9098618704370245,2.803547624853372
0.8046875,6.823444512489778,0.26891006693570496,3.1754078859286334,3.124970998223799
0.80859375,5.68564986574088,2.2097460879951343,0.004651908140130279,7.7485001097200215
0.8125,8.063900524470142,1.2193555244422722,-1.893228890619739,6.076530435360695
0.81640625,5.786925859722392,0.16837504925047841,-3.6263657013423503,7.191363955652829
0.8203125,5.074932119483184,0.08201230003989735,-3.1067478520017344,6.497579108359687
0.82421875,3.5788095847261543,3.0218045834423926,-5.394123406353457,7.908903275453189
0.828125,1.1876061719476718,1.8706094832668048,-4.205471719864178,8.463027513439805
0.83203125,-0.546761413605261,3.209479447124023,-4.666827755531826,4.025206842213969
0.8359375,-1.6761646528411864,1.5042135388305975,-3.863559896594716,4.517721514689938
0.83984375,-4.246031033407109,0.6851224051934854,-1.6084019547360686,1.8476005700398916
0.84375,-2.5593598962370003,0.40245833796797914,-0.31468075793684364,0.9117305288403554
0.84765625,-2.6205960149273917,-3.9556441213118667,1.8483098005770693,-3.4735651970726007
0.8515625,-3.2224522164112077,-4.7181442551771084,2.595453462969895,-3.362899700582508
0.85546875,0.23301763340611514,-5.0263273212770345,5.757317984375284,-3.9115089667945266
0.859375,-1.4365688178054508,-5.383867837282915,4.068072139984977,-4.217660476657029
0.86328125,0.7555430811306192,-4.282031188890775,5.362207332074685,-6.735346935168488
0.8671875,2.956874310315392,-1.8775701958568032,2.319426331702646,-3.1967974414215883
0.87109375,-1.2053548174730158,0.07149747115480065,2.0154103451201233,-1.118698930296705
0.875,0.6931558584575283,2.540950800033209,1.8419888885218858,-1.5145117156252474
0.87890625,3.4641831268881917,1.7614690427471875,-1.7023379859240675,0.024367870542705283
0.8828125,0.8588225408262478,3.3839740776257194,-0.8635565107865395,0.7696983898083996
0.88671875,0.9752311411019297,5.148781795600544,-3.0184641770858986,0.5856026605795931
0.890625,1.204278289184618,6.724383636223228,-4.236252494489148,-0.226308494192207
0.89453125,2.129509519490691,7.192408458254507,-2.0140341143973415,-0.03682332295460322
0.8984375,1.839511903105664,6.740039560413694,-2.955611850056064,-1.2700901580868198
0.90234375,2.7719012748187777,4.96182161641952,-5.789287054045486,0.09421595726225285
0.90625,2.6296836809104898,2.6339536849486747,-4.777703694647316,0.24378046543121396
0.91015625,2.136647383992473,4.894931830989213,-5.18595657008446,1.2888720505442222
0.9140625,3.547756344466436,1.2825164811115508,-5.919434214371353,0.8363294329976532
0.91796875,2.732180150312256,3.467558124258681,-5.853407958979382,2.89830173788924
0.921875,-0.7908377978895489,2.376064967317667,-6.338604360832638,2.874334531965809
0.92578125,-2.385580957622317,1.932798901772188,-4.612613733481989,2.3169500627568542
0.9296875,-3.4465826418083636,1.716147353729355,-4.9491931512870675,0.6513603094282132
0.93359375,-5.001562859692097,-0.006373002209851611,-5.088123830347184,0.80048915285891
0.9375,-7.77774258706547,-1.9477927695357011,-3.6573226492222015,-2.3157103082614383
0.94140625,-8.977165356243527,-3.858545206041255,0.11621182236496097,-4.876809725994253
0.9453125,-7.867791909837825,-5.487401779771728,3.4168623253912083,-4.403702844101168
0.94921875,-8.555089623876372,-6.946073567041602,5.45879320498564,-5.753390299471692
0.953125,-6.281374676385064,-8.84994252686785,5.256574043774286,-5.7028280898994055
0.95703125,-6.490531956523107,-7.8604673506559575,8.095307867581031,-7.829290412692083
0.9609375,-3.4308835029607625,-8.950637212224,9.739259155054981,-5.533364793328983
0.96484375,-3.220692405263362,-7.285234547931562,8.933320793534612,-3.210108983380022
0.96875,2.713705062826137,-7.561130375004583,11.038578392126391,-1.2577682303003788
0.97265625,1.9175121179424282,-6.658870183963801,5.281963119582304,0.12211748993702076
0.9765625,2.0901112802652504,-4.4954949961725275,8.026281830459709,1.7640495981444797
0.98046875,0.8435362077903577,-0.8632640446749615,4.249193948384673,2.6949179984386324
0.984375,5.306265174503048,0.8351203924561208,2.8841244624795515,3.1062919517160608
0.98828125,3.628289462769586,0.2944535908866781,1.6759700832882571,4.057012728019828
0.9921875,5.006362026720484,1.2530209254691795,1.941996454496044,2.9988053672221078
0.99609375,6.305975202296137,2.986731578200823,1.1962105762772466,3.220239388319597
1.0,6.127237078870225,4.573576430309802,1.6106826274416497,6.65720100802276
1.00390625,6.10103131210237,6.94662340005261,0.22088694963114663,6.269565282155365
1.0078125,9.0562812473594,6.153210659425158,-2.617639323473895,4.399413565582274
1.01171875,9.578102136838911,3.4780720081176364,-2.269737518410164,4.927441584510328
1.015625,7.978012315194267,2.8437239061234156,-4.994173354729137,6.763094626446197
1.01953125,6.933138299452073,4.796736844814854,-6.064256144750314,8.32011215119556
1.0234375,3.0751292620872395,4.652834229887523,-8.687581419034487,6.930989362442906
1.02734375,2.8772738863891885,4.275023359325338,-7.689291203563611,7.434628119306944
1.03125,0.3810322879921766,6.322347660102184,-7.746342621113149,5.915092651645761
1.03515625,-1.918598083781711,4.950176302363314,-5.071014551584893,3.1993110832153264
1.0390625,-4.411228974516995,1.7004618802217868,-5.821032163495679,-1.52996970516663
1.04296875,-3.7545147575055804,0.46206564732167066,-2.005960904972569,-2.843146393213207
1.046875,-4.901668500288515,0.4638196404975783,-0.8944011663731555,-4.329746384664184
1.05078125,-4.9437672270670046,-1.011203629139221,0.5223501216542358,-6.379045183516754
1.0546875,-5.559356508807276,-3.117906628895833,2.6175841830234603,-7.721896578384363
1.05859375,-6.081241567048295,-3.762532554878241,2.5732035115391394,-8.976246835687322
1.0625,-3.0497559248283133,-2.467613662762332,2.8219586220592197,-7.42201407706237
1.06640625,-1.6626355738904373,-4.85907731822056,2.017395614118742,-4.605427262702318
1.0703125,-2.0105193449573626,-3.8828642772612887,2.141296498474924,-3.6829899223564224
1.07421875,-2.968601908568063,-0.2692967862121677,2.6877643885083637,-4.002545306790003
1.078125,-3.2475904353517793,0.07468274125842572,1.8461474434932663,-4.213541052002542
1.08203125,-1.905988220742207,0.190875814736573,0.04892064638133173,-3.819746904357598
1.0859375,-2.2064759877399474,3.792171553845564,-0.7036144766908491,-1.3761111726813717
1.08984375,-1.3710744017090226,1.9084746008641298,0.3835077340490145,-0.8930847864752496
1.09375,1.946662173929698,2.6908370380344016,-1.470633873239139,-1.3833455611260432
1.09765625,1.570008044208464,2.3424485298335918,0.005374272424396198,-3.995694424122596
1.1015625,2.011290347907678,1.8698117463776875,0.17526325423171896,0.6878827927308667
1.10546875,2.014132279935379,1.7212287347049777,-0.859036208561789,0.9655126063731354
1.109375,3.4975114896857296,1.0225220588454895,0.6424999023515414,2.4282990751660454
1.11328125,3.51426086622702,-0.6939169982232469,-1.9445040266480524,4.834146318698783
1.1171875,2.340853202430797,-1.406437975734707,-2.0139991450802714,5.113155348932286
1.12109375,2.3480573501575615,1.5201967941095689,-3.239621853205538,4.9526431404141515
1.125,1.5213651525934657,-0.19587845726543995,-4.436276413070258,4.780078651600468
1.12890625,-2.4797600669657918,-0.9250787724575161,-3.033113015516129,5.478469063200668
1.1328125,-3.8395151280990016,-1.509511764432862,-1.343827510757181,3.0168222478293556
1.13671875,-3.4541723179320583,-1.1952043189200987,1.586378461393743,0.8197360314779611
1.140625,-3.706759788310576,-2.4380071154562057,2.9347450086966322,-0.927356704239271
1.14453125,-4.166284459287884,-5.450007050715608,3.456025409778738,-2.3252176881780504
1.1484375,-5.632322984075728,-6.080534666363803,4.373653987388867,-3.2850391572213393
1.15234375,-2.0798279762355736,-8.312298996207296,8.340329775750739,-3.245350073661111
1.15625,-2.911667725093756,-8.211164012054335,7.377514747927152,-4.6178951642269634
1.16015625,-0.9869392054180358,-7.787946066167199,7.89385854523097,-2.5964654889294834
1.1640625,1.5296511898128702,-6.95921004720361,9.17443866827937,-0.5255291220753562
1.16796875,2.4323004993597843,-2.9035331803602493,7.142770387507608,-1.8013012866139333
1.171875,2.040209851421939,-4.4051463625929586,5.647103124430121,0.8407710349872228
1.17578125,4.867039050908068,-0.599373137613826,4.002733000637171,2.97659598356387
1.1796875,5.369611725337106,2.415281607873644,1.3286115983838183,2.018555630055171
1.18359375,4.7194091553419515,5.908614070167268,-1.8477843196083252,2.008472941698367
1.1875,4.419025039510905,4.21284880161082,-1.7714734599772222,1.915403675221092
1.19140625,3.300624530281865,4.69241698501448,-3.2677332505742465,2.7882023996271834
1.1953125,4.2458910517610695,8.40534993728055,-2.5879455339767734,3.533715838321097
1.19921875,7.220593274437089,6.533551925768951,-1.4213674714004096,2.5940299654392707
1.203125,8.044640745428458,7.175871147487071,-2.1048968449802636,4.317175326774807
1.20703125,6.1247606939391055,5.710164583072241,-5.58319682346049,5.331609672361881
1.2109375,5.9830518181971915,5.000359788728753,-5.189935073144702,3.5031830651539813
1.21484375,5.566882227721109,6.673713190269731,-7.521893126693557,4.288372659802729
1.21875,5.304800718459787,7.463100659542004,-7.113367754377611,4.029583876292601
1.22265625,2.458586510139959,6.341086916492696,-7.791141006381576,2.164185561526437
1.2265625,-0.36775629825990375,5.546828345395817,-8.310956304601879,2.077545806225896
1.23046875,-2.870487584140622,2.848531634489569,-8.787695857110627,-0.23159322662476778
1.234375,-3.938347452687073,2.7568172785387883,-6.987331600351868,-1.258691710815345
1.23828125,-7.038002954968063,1.4371891574576232,-6.0607701091144515,-2.8838328703011884
1.2421875,-7.990631450249497,0.745897317852243,-4.35991515145465,-4.277906559524249
1.24609375,-9.46137134233485,-2.5010572420907593,0.16542188855564244,-9.145545585907698
1.25,-8.242597131927408,-4.267936402041553,2.0230272910078364,-9.20503508541709
1.25390625,-7.433378116999009,-6.584174577350738,3.9040376990774748,-9.28844707542718
1.2578125,-7.400418103668685,-9.170471415264517,6.474030188774797,-10.472387221552797
1.26171875,-5.877964379378226,-6.456783306881029,6.444898484895072,-6.645208148779816
1.265625,-3.6802140350934733,-7.675112669824638,7.248170787182095,-6.60192931163114
1.26953125,-1.8562300348063967,-7.094101740761835,6.987374724148216,-6.027799673685358
1.2734375,-3.206522403773903,-6.682265434330031,4.867352643965175,-4.270045358375396
1.27734375,-2.0576684127340514,-3.093362963084371,3.296177693835463,-0.14289110100288016
1.28125,-1.9814330606938824,-1.1186555929187423,3.3086473373564456,-0.1478152231929255
1.28515625,-0.7910477377034901,0.08361827226500279,4.047476706044312,-1.0543265415619802
1.2890625,-0.5618216307446088,0.18919383136445495,1.9973858466531988,-0.45070684315350773
1.29296875,-0.19549418879812652,-0.988410097284182,3.3707913744142552,0.3028392922560754
1.296875,3.071585932639632,0.855119843248597,3.101027685209548,1.7558456405969376
1.30078125,3.0460423752438293,2.7017888431032873,1.377812231044329,4.278440837157401
1.3046875,4.9858661034239224,1.7490795980408196,0.559188510830897,4.896092863270984
1.30859375,5.9934763451286,1.1311712338055293,0.20754839594990115,7.44191276873052
1.3125,7.287538208912571,0.588361542499704,-1.8644698846279057,6.300315500894802
1.31640625,6.552623388598154,1.3938548865549907,-1.2197062124567914,7.648023673077911
1.3203125,5.785366572343457,1.1670312206428162,-3.624403037665944,9.555947205429009
1.32421875,4.485894187717845,1.463678953328197,-4.603487150234173,7.290456341613776
1.328125,2.737421009523247,2.1564934151283945,-3.6979194831784152,7.435233588946921
1.33203125,0.25214216721257443,2.529265286861638,-4.201663143182355,5.107959028112827
1.3359375,-2.623444177250168,1.1830608057493603,-2.2392944799623034,3.2047128719187215
1.33984375,-3.8451141116627063,-1.1740521106944053,-3.083823212165165,1.0486552995037175
1.34375,-2.3519822895278777,0.10925708406980772,-0.8295140672166392,-1.784760307514541
1.34765625,-4.228425296748665,-2.243006128484653,1.9239970647831894,-3.080588138904186
1.3515625,-2.5679550939150033,-3.457125673847435,3.99053484216462,-3.617802270310631
1.35546875,-3.6792608363721406,-3.550808014557249,4.752753949329707,-6.478937286417614
1.359375,0.8438399743941085,-3.32436762713398,5.369117203914049,-3.145431744985534
1.36328125,0.7637704795678554,-5.982607426341732,4.1377248129884965,-3.404902706443158
1.3671875,0.5704455317730524,-3.65894159906109,3.807011653630323,-3.214560030572614
1.37109375,1.6703060003694592,-1.6528116375777189,2.370043094446678,-1.6668222948003706
1.375,3.014678587893685,-0.6709548067398907,2.5965288941886633,-4.636739337170672
1.37890625,2.4443741608862517,3.710218662470212,-1.1648718936349816,-0.9436762690555375
1.3828125,0.1173002703568875,3.221460837575769,-2.563069017071059,-1.8927339595993422
1.38671875,1.4553666273362669,5.900463528710717,-1.0319053511453824,-0.6043401236941579
1.390625,2.459039058253425,6.843516306736926,-3.1505830922946547,0.46026079896594374
1.39453125,2.4846680158838472,5.927426727784637,-4.18409482821659,0.786715136904955
1.3984375,3.025364632401366,5.177257333174763,-4.157456477959332,-0.7818912810373433
1.40234375,2.771892032109737,3.7839866967924634,-3.6009654237704063,-1.5652537309572494
1.40625,4.391553920907693,4.308498262333046,-3.7043551116682125,-0.33627113192679736
1.41015625,3.6198443755294627,4.246130525343961,-3.4703467921916493,0.7648865618363165
1.4140625,1.7887573214164751,3.9392736153192827,-4.984623084453826,0.5095466382017646
1.41796875,0.9239609751211939,3.7689302805250327,-6.137698484845383,2.166874311790316
1.421875,0.9386631373894228,1.621582850844994,-5.536132709213385,5.517475671879382
1.42578125,-3.2236252539496437,3.1590336010676845,-4.821904124470507,1.4892642583937272
1.4296875,-3.1189779599399436,2.2166685147231,-6.061938544046565,0.15888192556945202
1.43359375,-6.810310588775842,-0.5795271448234457,-4.383152563105705,1.1528228010591866
1.4375,-7.400296265660732,-3.9580924966825286,-3.803832513356854,-1.5093112610192778
1.44140625,-8.886793529302054,-4.264080363926014,1.356120630642716,-2.2111676430918292
1.4453125,-7.175942119516845,-8.280021498008908,2.9072334851913495,-4.989913965766457
1.44921875,-7.396041369102257,-9.120397100172129,6.859505222256033,-8.70388671739308
1.453125,-5.764040399523859,-9.611482895045128,7.9998875666133165,-7.669430645886237
1.45703125,-4.398691479972412,-8.517477302466691,9.092215777452694,-5.869485351887461
1.4609375,-1.1466200594131708,-8.095926641522283,9.513760190561905,-6.733464316317867
1.46484375,-4.5674538639338085,-8.745137403053121,9.257223496589992,-5.836176345212014
1.46875,-1.6425941576837029,-7.0839366979320495,7.981785283366106,-2.382573649390094
1.47265625,0.9192541511346615,-5.878362738327495,6.872383436263121,0.7299252735169011
1.4765625,2.1110782579291634,-1.5529764063875593,6.825467683092013,1.2042543144591893
1.48046875,2.6683076540390127,-2.3001674781196475,3.848024554013083,3.5978012847956338
1.484375,2.990947668421138,0.506878973320783,3.4174861682515507,3.2251038792956206
1.48828125,4.579061499712244,2.5732087726501454,2.10741255775638,4.260898025406475
1.4921875,4.67724052628626,4.209823357315171,1.7583165766141873,2.9565236359898766
1.49609375,6.385488352480635,2.8197291243561,0.4911669040416471,5.007298948223696
1.5,9.85088073904556,3.2596370071718885,1.1254653663494247,4.846913221667258
1.50390625,7.350111774320696,3.921186075103089,-1.3006336566659327,4.684449433675877
1.5078125,9.209937134312185,3.6796589252814202,-1.3217780213580326,8.069155582525006
1.51171875,8.276766382447095,1.994414076192574,-3.6786499652631504,5.897251552963602
1.515625,8.877804152068213,3.454246399422961,-4.014003769730227,6.164918076494582
1.51953125,9.094311896183978,5.030818003714029,-5.35855175795833,8.367440331705314
1.5234375,4.576716850814755,5.68534263583027,-6.530578217930005,8.666349836944747
1.52734375,1.6279248297758437,6.773323802311769,-7.621141124065226,5.658698851941457
1.53125,-1.1863555781028712,3.6645234962400934,-7.877988992407265,3.9510580689744272
1.53515625,-2.591376159787295,3.453083860380619,-6.9836292428556455,-0.08962869046971655
1.5390625,-3.4449100379570186,1.6613638154616108,-5.647623540322333,-0.7811923338259881
1.54296875,-5.898277206215154,1.1504684975376869,-3.2951198252379204,-3.330872104469466
1.546875,-5.748484349316994,-0.013857687607870428,-2.18712952320284,-3.8654181522696436
1.55078125,-6.046877689346227,-1.8170044260719185,-0.4650153886294799,-7.771693743787717
1.5546875,-3.2995804853257034,-1.984390477369622,2.3677095129101655,-8.639053769161931
1.55859375,-4.005832923616195,-5.453347928609015,2.100821209798858,-7.054587394208674
1.5625,-2.4128401520236062,-6.605479350704181,4.783886100310074,-6.392549294663082
1.56640625,-2.498261410337285,-4.66768678140134,2.8275028702579754,-6.963315940128934
1.5703125,-0.14339851652408853,-2.7774922454653317,5.148033086985229,-4.228350952061783
1.57421875,-1.6328151599542633,-2.13059233947195,0.5405562766212795,-5.6663320495225555
1.578125,-2.057991280064258,0.10680106066354322,-1.070136803617422,-2.2888246225249316
1.58203125,-1.3423607281654624,1.3666859933274063,0.9069139829982276,-3.727528025026083
1.5859375,-3.129626684154357,4.420309963821393,-0.014827520470897304,-4.553647498309852
1.58984375,0.8275163462153461,0.9221175045112506,0.2960737536173258,-2.476887472642395
1.59375,-0.03061444151672532,2.989306957979876,-3.2318918881196668,-2.6621651921668157
1.59765625,-0.3139732017531115,2.1942315450144063,0.4595876138161378,-1.2323582772648707
1.6015625,3.6499832072691483,4.532142031316204,0.9527863266275466,0.6707836590997349
1.60546875,1.5749797396467355,0.7960649756553269,0.9065141907467082,0.9307427603250833
1.609375,2.2944965255386047,1.8542042608729903,-0.2175288390009732,3.1322918821734023
1.61328125,2.2551802494031845,1.671679372967163,-0.8711379719132641,4.672631769833439
1.6171875,2.7303466048169196,0.512983431690976,-1.6890235663362105,4.782361118471328
1.62109375,1.6272564752078849,0.09051940735630752,-3.151829845910168,2.959981966458491
1.625,0.7287099796358613,-0.6466225239516529,-1.4929251858344512,4.848192515459863
1.62890625,-1.5047840575103388,0.19835558558176114,-1.3999855151338825,5.381714916036588
1.6328125,-3.053558552201489,-2.498255678611774,-2.4115291149066294,4.79867158687047
1.63671875,-5.8617750220632665,0.07716910452408676,0.624024898802853,0.5967215956170346
1.640625,-4.449994944503753,-5.315631681129767,0.3696512580992426,0.6561138727532643
1.64453125,-4.485041182439453,-5.364096432903111,3.0363650465892325,-1.6519221106254771
1.6484375,-3.533773928004845,-6.916640933582097,5.222956069157429,-2.2374535803670326
1.65234375,-3.9279905073696906,-7.3068532275930655,6.66003898755784,-4.029267558640631
1.65625,-2.1738765444971357,-7.572513549631484,6.616910398110587,-2.5737980625292747
1.66015625,-0.2567295469038681,-8.18710128207753,8.175694428104459,-3.4696607999709124
1.6640625,1.9008831037340794,-5.96861726373044,7.136599143308527,-0.7967626796287997
1.66796875,1.4428899988501933,-5.733005251116118,7.314124131029527,-1.6916490970247189
1.671875,2.333783046353614,-2.4954957685926313,4.435797037903507,0.9496335514479113
1.67578125,3.116908690858342,-0.8444841753985952,3.665456749001809,1.8376998148210817
1.6796875,2.6968756071573416,2.921049636387367,2.27150240976687,0.5230691853374629
1.68359375,2.562493994509687,3.8038512775535667,-1.2505645216344623,3.7884250611945927
1.6875,4.344977641662223,6.660479683178193,-1.027703488546698,4.0557634087926395
1.69140625,5.862531106411289,5.3038726167017,-3.1008427829061658,1.6603288204705033
1.6953125,6.7808968401408105,5.842801593251039,-3.512935109768109,4.096458373753159
1.69921875,5.594628444501934,7.39650113054253,-3.520115965976521,4.260656328679133
1.703125,5.948664388020803,6.46254742984948,-4.167566307374721,3.08144559014011
1.70703125,9.498001135317828,5.867422370849368,-5.153419888134556,5.151263929953043
1.7109375,6.696767201482582,5.064096969855857,-5.831393719814985,5.235323546630558
1.71484375,7.153632041496366,6.281506712781432,-8.172167571215079,4.560362710086048
1.71875,4.780079466876445,5.205139333909371,-7.065889423596314,3.147939275890982
1.72265625,1.6494909737867542,3.1509871119324946,-9.58124714903371,5.943725901323785
1.7265625,-2.243590591295953,5.609663501358515,-9.427246548911226,3.1296504179864297
1.73046875,-1.3326946627239384,2.6670551990247238,-9.328133260589139,0.8249800487972092
1.734375,-5.693439589938434,0.679827084425924,-6.984324195013458,0.7196335870343291
1.73828125,-7.066960239046189,2.9310162558606314,-4.17297598141089,-3.159468741018687
1.7421875,-6.557154136296318,-0.004544033785936041,-2.0887899769247715,-5.636758914441611
1.74609375,-7.947480432226657,-2.3862109542111742,-1.1490145536843164,-5.125256871712953
1.75,-10.098491057827967,-6.879845572036279,1.7083616028210034,-8.34173625508032
1.75390625,-8.275622579852426,-7.019709830710703,2.106026143088276,-8.930483676608889
1.7578125,-6.518830699458464,-7.714028603004743,7.062109023953317,-7.489314545645116
1.76171875,-3.2447296756611474,-7.4973973303784245,5.439785907868979,-8.786462912373517
1.765625,-3.1410621412715694,-6.200313115304891,6.113747646682687,-7.9265530059280565
1.76953125,-2.1483372037973023,-7.771919451820513,5.243774928215463,-7.965558944165279
1.7734375,-0.8866189543735534,-3.8041831363938803,3.575001247128977,-6.382350561418159
1.77734375,-0.7573162474831083,-2.7851370672431557,5.919250156954223,-1.1336688801362054
1.78125,-1.3220368781079186,-1.3812606331276787,2.8007943143164944,-0.08366870581173325
1.78515625,-1.2904880099697937,0.19486202317004858,4.460575941550806,0.8822097107412522
1.7890625,0.027282494056778572,-0.29487969599196606,4.706395530471111,1.8096130886465147
1.79296875,1.2707761317235002,0.6478446327863718,1.3539653814838601,0.45413449181906584
1.796875,4.48993065060113,0.8820383049506664,2.2027011243218233,3.498959189783452
1.80078125,3.5517126596177953,1.1005668138632485,1.752602717406239,2.6771615347629556
1.8046875,5.060271016640505,1.589287160910596,0.6990816188506073,4.570577344720815
1.80859375,8.86339735555587,0.7413257096365002,0.4238434207043454,6.052371613148409
1.8125,5.7071868514768935,0.6682651729016812,-0.4327916171214416,8.048707139018191
1.81640625,5.918488529242098,0.22846780551293933,-0.7236126823561065,7.8108678547812005
1.8203125,5.023137452661969,1.9701261028465509,-2.8037214502631196,8.57024154456828
1.82421875,3.8954992863124445,-0.04201965409075803,-4.269105478908818,9.645640473587704
1.828125,0.8927932723202661,0.417152162888492,-2.1927598266109105,9.598006499644566
1.83203125,-0.24843207327021322,3.0452369559382464,-5.147152997431469,5.822450095305086
1.8359375,-2.008097977210147,2.340555404169946,-3.301706673527634,4.232866972410092
1.83984375,-3.671482067570076,-0.21587385166806572,-1.5140692909248177,-0.272152685192101
1.84375,-3.5323998338203837,-0.4416172517461281,1.2808260740193511,-2.341783965888507
1.84765625,-3.947750837024743,-3.11034603147297,0.1853343523442934,-1.4669712699691357
1.8515625,-2.0303794390092076,-4.052040182171915,2.329463328358378,-3.8837343966334474
1.85546875,-1.9720288090587186,-4.851956155924555,3.6113397591762504,-2.3578259373043924
1.859375,-0.12837925046818127,-5.255908212450315,5.02679808437288,-3.655524518087356
1.86328125,0.8725918823787695,-3.165038424067535,3.685644494529223,-3.106522112417564
1.8671875,1.9481783505606214,-1.2073818550944915,5.003852442319488,-3.850754687668774
1.87109375,0.419321171149003,0.26264035766017924,1.3018265863013603,-3.109252340406533
1.875,3.57335812361165,1.2881363981481617,1.7162465549862194,-1.7143004389124719
1.87890625,1.0579335266921805,2.770151657211109,-0.3646953219876964,-2.5058753076001574
1.8828125,-0.7342501089851252,5.603502089059596,-2.481238224016247,-0.9178048459949735
1.88671875,1.0506100848988096,4.740358761255182,-2.042627138745427,-0.9816203788532285
1.890625,0.9065564463460445,7.168585404486555,-3.1097324934272867,-2.095331195619419
1.89453125,1.4398986579007382,5.984222694934391,-3.1911888574627345,0.01233694069894109
1.8984375,2.2044251942555646,6.795227058607917,-5.690411074512943,0.16388806891976615
1.90234375,3.0276666121564784,5.272394957400471,-4.221168179561459,-2.232567749374449
1.90625,3.1479123211515216,4.328597114214216,-5.0605745503873845,0.14307803138767355
1.91015625,3.929905712946786,4.23606838012806,-3.1710959162324572,-1.2109531941447997
1.9140625,4.160029883141316,4.813212967996489,-6.698635136435138,1.6095229223137968
1.91796875,1.907020109697904,5.12362990605595,-5.957164608358232,3.7799971825323784
1.921875,0.2075681909841533,2.5381777514265647,-7.05718925802722,4.59665707449331
1.92578125,-0.5898924822940113,2.409925817366983,-6.10701722021804,4.7110811648742885
1.9296875,-6.215561511003161,2.157306370993374,-4.962480319142924,0.5648513133195392
1.93359375,-5.844513359005111,-0.3862602802780439,-2.920627342001691,2.3638776682098785
1.9375,-8.825831027214468,-2.968412832008956,-1.502878505026215,-1.4113099031809622
1.94140625,-10.587429362428747,-3.909171903904823,0.49518221779601024,-4.286918039179657
1.9453125,-7.85109711488581,-5.415485229484672,3.8392915023234218,-4.747040665100627
1.94921875,-9.298870595628083,-7.3957984168867155,4.7804486553604795,-6.278612825716118
1.953125,-6.756175019979233,-7.529079699561975,8.382225920047627,-5.114311140771797
1.95703125,-5.144289313746553,-12.033221539653946,8.837803191859715,-5.62917422223824
1.9609375,-3.85298397919925,-11.410047439328142,10.047069727599425,-6.071029666467622
1.96484375,-2.1221605152587664,-7.438075180202439,8.862119337839854,-3.2903747927990263
1.96875,-1.6179742784436548,-6.986110328809174,8.63479328958413,-1.636069434792275
1.97265625,1.9522475453435435,-4.637373235408514,7.255280881627617,0.16451732426479415
1.9765625,1.2220113293336863,-4.885319510640453,4.824198637241368,0.43227675700130264
1.98046875,3.534009585430165,-2.7746735840932226,3.948336821267572,2.773221163646847
1.984375,1.6281514355923319,0.35601471668483103,4.664180475962655,4.763141992866695
1.98828125,3.6942651852894937,3.3712760853636805,3.9882587638244615,4.794627040719381
1.9921875,4.9060100892006515,3.1716930945581323,1.2583124242968218,4.3885008931152205
1.99609375,7.079850631870919,4.055327508198149,1.308758347954189,4.936497735333231
2.0,7.436914638527134,3.9620092094247634,-0.10330457463890247,3.6402514811375974
2.00390625,9.708772907651104,4.115580344610414,-0.07073699504234676,5.746040631836933
2.0078125,8.059639310487524,3.6896695460678677,-1.6059254063090354,7.750002787277643
2.01171875,7.759579817959536,4.691866752828051,-3.6235940539393745,7.199709816654526
2.015625,7.704571467387027,6.403749855806803,-5.115532380460226,8.301011053934097
2.01953125,7.054599246929509,3.0313653194009174,-6.484708626982169,7.548973719670341
2.0234375,3.6808778858916362,5.889551555902487,-7.933549618699326,7.2291504835875
2.02734375,1.4416345974512281,8.00254183854929,-8.69353922528901,4.324087514608531
2.03125,0.1904395466147653,4.564403202912842,-6.894260077993419,2.550427684246481
2.03515625,-0.16598310224961788,5.29952783283437,-5.5357591655274465,1.9034340847813362
2.0390625,-3.412784651243382,3.276169099074406,-3.1540074907010514,-0.983701741792836
2.04296875,-5.472369928495558,1.1300006045629527,-3.2512079812914365,-2.1929963565899175
2.046875,-4.404644590402562,-0.9253110323785521,-0.6304831740644629,-4.219204563617713
2.05078125,-7.551451262188705,-1.6939457259589163,-1.557744499283836,-8.2940545275876
2.0546875,-5.701921120785169,-3.649426043947464,4.306476203536246,-8.224728060151081
2.05859375,-4.7705718422733465,-3.5527044887356545,1.7929772759756968,-7.278526133101034
2.0625,-2.719633796769942,-5.349397258543663,3.7152418349273746,-8.390142036505237
2.06640625,-2.658708171382536,-6.245648284626654,2.7049711399906,-6.977478899410915
2.0703125,-3.1870350024159517,-1.8450202099018709,2.6105146822507743,-5.175409788203122
2.07421875,0.6738525294726709,-1.3924721993278555,2.353032159318495,-4.179475512821994
2.078125,-0.8417024931478025,-0.37934124603925246,1.9290159655096628,-4.448828686307656
2.08203125,-1.3966478309215997,0.9354223863489849,-0.03960052886833265,-2.97904455315471
2.0859375,-0.7920742131463084,3.045484195085667,-1.3935442860407434,-4.144359557707516
2.08984375,-1.4467854085557743,3.8165482203397367,-0.8280289902568085,-2.911642625768187
2.09375,0.8452809329158519,3.709727695216564,-0.46574724154396524,-0.4645994819110688
2.09765625,1.1475111318278666,4.031085736135693,-1.131695182414683,-1.9766872445085772
2.1015625,2.602186186782587,1.0817793798821287,-0.8929850562414261,0.9855560113813528
2.10546875,4.159227431186269,1.3285007558203112,-0.6996106804042164,0.3886381265180967
2.109375,1.9696788473729252,1.536693583573794,-1.62105097788068,1.9876330207843418
2.11328125,2.2834809477066678,-0.8179814557909927,0.16702087664964993,1.8983476480576176
2.1171875,2.6174557936827982,-0.26485539827708265,-2.2416861990204136,5.554529705083543
2.12109375,0.8835357004704046,-1.0529080455579487,-4.032479749706265,7.123294737502288
2.125,0.7339066258014443,-1.2084498005877964,-0.9557438667653981,5.597646754020563
2.12890625,-1.0780681552175073,-3.0478260699691493,-2.3123267618560543,6.153453809454386
2.1328125,-2.650441600764718,-0.5675498263548178,-4.87474559985765,2.5778086041655017
2.13671875,-3.0835968740133035,-3.9658285318923094,-0.5106382655923334,2.1994740234596883
2.140625,-5.53882970485534,-2.344153922246696,2.979914158357159,-1.970161143895143
2.14453125,-3.4065659261639705,-4.920372027460033,3.932456580527873,0.017494696332025494
2.1484375,-4.688584950245921,-5.914106448288577,5.206134981772009,-1.7950107227218826
2.15234375,-3.676588776574796,-8.88995085700083,6.699341729768276,-3.7997131843182963
2.15625,-3.1514621808375405,-7.946433231299422,9.277379691579624,-3.020824398818243
2.16015625,-0.33978468854956234,-10.038712607085499,9.385778816187212,-2.7913720719188166
2.1640625,2.470891472246284,-6.397707846776363,6.784232667251814,-2.8241662139414347
2.16796875,2.1723314570319974,-5.674637902226492,6.361233542676325,-0.39958686415646305
2.171875,3.219858138949728,-4.604076158932775,3.0880555730246284,0.3755328670672248
2.17578125,2.559339011676349,0.9253317153183123,2.583376941034875,2.482035104683033
2.1796875,2.433257508638052,0.9055385180792651,0.3625408422248366,0.4271619382036487
2.18359375,4.284827604867164,3.7724601179718347,1.0199164978269393,5.076888774231725
2.1875,4.504936890787676,5.238624890728077,-0.1413295613453378,2.9155479119406795
2.19140625,4.167853190431372,7.934969503522474,-1.0655586900000706,2.507358874224116
2.1953125,5.045876847339694,6.95496747216045,-1.3309503418826893,3.059584759381395
2.19921875,7.125498070737709,8.275492896341815,-2.5524353159992357,2.072595604695145
2.203125,3.982452829031287,4.918926359510866,-3.141882203260894,3.2867746615370623
2.20703125,7.9730417487387415,7.03944208924268,-4.338613498835633,4.114142319807463
2.2109375,6.626817332216905,3.7294219636171566,-4.945833576472495,4.4643390130454375
2.21484375,5.944072582439264,4.565990144904526,-7.800265168352154,5.7681731805587
2.21875,5.080346236471174,5.825874650060329,-8.298332365558585,4.7215590457337
2.22265625,1.532861118565986,5.494010520212171,-8.411302908855516,3.7376978733835493
2.2265625,-1.5641636861494623,4.354390935919698,-9.186002272870432,2.8342859174695545
2.23046875,-3.6820415227158128,5.05692243532145,-8.259027513672967,3.0400659205583436
2.234375,-3.567006622125014,2.5884508105919606,-7.299654896386475,0.4769877928807422
2.23828125,-6.279736472503056,1.1764576471182946,-5.362870843845742,-2.585883353813851
2.2421875,-7.640588178176558,-1.159247915893371,-3.8971793711280878,-5.174363452093906
2.24609375,-9.985282065121012,-2.3493461289869004,0.7175090311616044,-8.16432019476532
2.25,-8.038200066678577,-2.712128851697642,0.6006346145839925,-8.512087594360974
2.25390625,-6.826840183348019,-7.578245058218221,5.614006253541035,-9.134922771266394
2.2578125,-6.8155699639802005,-9.054374927551173,8.097066085396847,-8.288496517168566
2.26171875,-5.532713093627912,-8.37923128588408,6.281608068696898,-9.675811522243372
2.265625,-2.3083765206024625,-7.6698849383798855,7.822068624344414,-5.33404601057977
2.26953125,-2.7738599902764514,-6.284031346292274,5.725400190223338,-4.302331467546373
2.2734375,-3.9584060324375745,-5.697422883574961,6.243579582008316,-4.595113129945809
2.27734375,-1.6879452831659294,-4.094114978034222,4.221004960982105,-1.353482185388263
2.28125,-4.19339375929658,-1.2350400757343694,4.218969744123868,0.14954604940894112
2.28515625,-0.6855699876623124,0.07091095169427486,0.8662315267623613,0.5756210442652839
2.2890625,-0.37882112315742633,0.44129729386023153,3.522591922251267,0.8286173500143487
2.29296875,1.282593187583002,-0.2380030694994324,1.8779320299376139,1.5740464094327695
2.296875,1.8170454784775492,2.0012895070168017,1.9733672875437813,2.8846757411068737
2.30078125,2.188585697208795,0.9693023103329939,0.8612789210042919,1.8610184434345305
2.3046875,3.6475103626179983,2.875233318404549,1.329193358922928,4.505664317036943
2.30859375,6.78018129319567,-0.450292382834375,-0.20598140246979724,6.281708721954375
2.3125,6.873811111160153,0.20090867006195445,-1.4755476494467623,5.809616081664328
2.31640625,5.514449880778168,2.5315023905437917,-3.5072822728270747,7.938038814384889
2.3203125,4.535644256367063,1.6366474431682472,-3.11585007983896,9.116183352647584
2.32421875,2.361969503478124,2.299997832019392,-4.014965076325376,6.6897418048345685
2.328125,0.5479016197382773,1.5320782710035223,-3.778691677575437,8.247069067970312
2.33203125,1.9091828510379114,3.4952329075840853,-2.324916026574953,5.986819359546493
2.3359375,-2.5773234780654386,1.1763571777971462,-2.4101252739187036,4.129155075626938
2.33984375,-2.1297533438030087,1.4448147554354525,-1.6893963919483563,2.463218191868586
2.34375,-2.3486263249412467,-0.4007804049260323,0.430445448107157,-1.5720276909077877
2.34765625,-2.9933357964193186,-3.825213633028193,1.627401760917932,-1.9292071803791297
2.3515625,-3.979352603951459,-4.3662995068214,5.027377880610394,-3.5882748264530204
2.35546875,-3.99308622197729,-3.46120267872472,3.4203003520989768,-4.924290961969439
2.359375,-0.6329114373263538,-5.422066947135473,4.397606470579683,-3.7226372816739692
2.36328125,-0.34192213658159987,-3.057321780101404,6.661430351847246,-3.7568187585489277
2.3671875,-0.2202316300572067,-2.726059914291545,3.5733121011571276,-3.0783301569550363
2.37109375,1.4477759500063296,-0.4901944925097651,3.138008337503638,-2.5463009122346896
2.375,1.1518411533680786,2.7021491055765243,1.870979482337929,0.21038876187158406
2.37890625,2.1768256854694927,2.649065476702976,-0.6588917812815263,-1.8707904464219196
2.3828125,0.2788353533563166,4.000005790945427,-2.098865328377215,-3.9901192163893326
2.38671875,0.6120531216242278,6.553851576455676,-1.4814546041119554,-1.272072585317174
2.390625,0.3405795574544853,5.694892305561989,-3.3325109287571473,-0.4414075635710229
2.39453125,1.512208151223223,7.229171030739838,-3.7455288357552514,-0.8396455768801026
2.3984375,2.880301350870915,8.588735660639367,-3.2378612153195085,-1.2204158804401688
2.40234375,2.9692187824858416,4.019274073583382,-2.80607943217762,-0.027769760425070067
2.40625,3.7209707187462686,5.457279940073944,-4.970120706868739,-0.2532988020916577
2.41015625,2.900061158687164,3.5461367891718956,-4.343658934534509,1.124729633649905
2.4140625,2.6796918926304407,2.145368121473826,-3.8874369715665287,2.4909178407839305
2.41796875,3.2031463724523417,4.242234658139081,-6.959163279992616,3.53302411651792
2.421875,0.007968207513227465,3.2344679853145366,-5.802538856498003,1.647978299247164
2.42578125,-2.416331103428267,1.0034710311202282,-7.820833903073636,1.867522835283184
2.4296875,-4.243046414799059,-1.3817848760640572,-5.34073298328023,0.8528861132110248
2.43359375,-5.171475433435273,-1.2602821586543718,-2.818348297421114,-0.46356541284418024
2.4375,-8.649830591111632,-1.0426992906793493,-0.6491049371884448,-0.988673266670679
2.44140625,-8.380970924420255,-3.395430120209021,0.37630097917269767,-4.349456725306582
2.4453125,-7.951994602850672,-7.1838408543135905,2.353306984340761,-5.259214203451642
2.44921875,-6.142178389549893,-6.6074358675766565,5.996894083704653,-6.919435881123266
2.453125,-6.685680533265185,-8.209618411928593,7.644714970877034,-6.181381774931513
2.45703125,-5.4367536846477895,-9.334435751601813,8.01759440157664,-5.5856796394242965
2.4609375,-3.230445255582561,-8.828469133247886,7.476343837047221,-5.4518226198923285
2.46484375,-1.8080346679023458,-9.802507659900941,11.01799696248804,-3.499449464384286
2.46875,-0.7130324819206274,-7.30394572231872,8.418664855775031,-2.8744228193965173
2.47265625,2.669045268628243,-6.0481776560885026,7.0775957622293655,0.34791100292439714
2.4765625,0.5603483102575929,-3.5233713439629084,5.199250213947849,3.2063645756855674
2.48046875,0.4970523224628385,-0.6051868631674729,5.758225959512855,0.8503202415093634
2.484375,2.025459765829364,-0.840479208780093,4.029011164531363,3.4862437327006432
2.48828125,3.1378211873525066,2.8551134976942,1.9456947466044163,3.9357774357534714
2.4921875,3.0423655246702284,3.202946929261913,-0.16920010744948533,3.530058774690759
2.49609375,6.420963901979735,3.336076240684439,0.33402566914275744,3.8052302929724156
2.5,7.3586796611812035,4.813317967212704,1.8561952784442755,5.641299397050084
2.50390625,9.743996131711631,4.160793964796531,0.08321637726988385,7.181746246915703
2.5078125,7.951901546301265,3.2903461347733343,-0.9765208289084003,4.281319639240968
2.51171875,9.738213898226288,3.95916665087472,-2.2650689482751893,7.0367563507388935
2.515625,8.925655125822393,4.664363618326247,-4.876790727277594,7.76002661842097
2.51953125,7.271527333999216,4.218965165577056,-6.444102662381759,7.9227663303224105
2.5234375,5.539783239476421,6.0319785168631626,-7.170875870461292,7.2580153384022665
2.52734375,1.775117523501708,5.4836977756449805,-7.140692082302097,7.128302820373803
2.53125,-1.5113367520055934,6.588266898564605,-7.657347384641917,5.476179617695167
2.53515625,-3.3235758922446212,5.996942976775691,-5.713573662110848,0.44105208961215436
2.5390625,-2.8812583660711537,3.803003613278114,-6.639541402070682,-1.5905542216677446
2.54296875,-5.583634296550393,2.075137722278826,-3.5660522425515215,-2.570817047675808
2.546875,-6.46756694548464,-1.7710830028841222,-1.3654424145064756,-6.303058028219204
2.55078125,-5.401468029651675,-0.8824649171929004,-0.9414087671471008,-6.737190297928756
2.5546875,-5.850963761858585,-3.6411842501299403,1.2904035940028071,-9.826817865942092
2.55859375,-5.088868940923029,-5.317231555778565,1.6413982772360396,-8.36583793922812
2.5625,-3.9351403712950126,-4.035958883287525,4.094624011161221,-7.081530591867007
2.56640625,-2.836325616531777,-5.282359082392352,3.6674572776080714,-7.107359466177184
2.5703125,-3.047817146377956,-2.548842241653991,2.512969013986839,-5.70314869002798
2.57421875,-2.1587404870067015,-1.566918509924955,1.1424015368125744,-3.48619247197853
2.578125,-1.5379853287756662,-0.21053194643840123,0.3506652015091477,-2.7344570995663022
2.58203125,-2.359136673065084,1.4482946848908118,0.1465982680844008,-0.366151100274704
2.5859375,-0.8408068288505198,3.855942835627477,0.48212036602208097,-3.1382429744942097
2.58984375,-2.4627695412426984,2.4459705180675027,0.08188658121285808,-1.6561996758378688
2.59375,0.36847135544967535,3.6457697437725765,0.16674682133497554,-1.0635872589353355
2.59765625,0.6622406280707651,2.777672662839309,-1.0718207501403956,-1.4525988609850582
2.6015625,0.812193467531692,2.135345398639038,-0.37658445761225434,0.5849140921711191
2.60546875,3.552593295526666,0.9294284541527924,-0.7843719544689026,0.9559922185607146
2.609375,2.937965149082154,0.277004332545916,-3.4125008948179483,2.939102827411357
2.61328125,4.448685909798326,1.0934866465405944,-0.36478002655163233,5.872063545659179
2.6171875,3.2736133725055683,-0.43615195105509524,-3.546902832621875,4.889686782505345
2.62109375,0.6162300000245855,-0.11632570031339302,-2.70790100106276,7.2370477981404475
2.625,0.14509889126180983,-0.27160175111762863,-3.0509969738490277,6.672848432200581
2.62890625,-1.675554049214085,2.5355376909737295,-3.117328871518515,3.8844955214294288
2.6328125,-3.8077307824503834,-1.8268160738687622,-1.3740425407980261,4.617405041758898
2.63671875,-3.6605054214953485,-0.955422885034789,-1.8340659060609248,2.3493906281682526
2.640625,-6.565222930061289,-2.0985439315510863,2.107868054058254,-0.24406697038887998
2.64453125,-5.921204239964158,-4.521327000691283,3.1870747676393987,-1.0705606634992006
2.6484375,-5.488435502137238,-5.735297520034652,6.165820446342176,-3.5278488265628147
2.65234375,-2.7368760306034865,-8.035142376929167,6.958971814420977,-2.159783574904167
2.65625,-1.6973792392133826,-8.33020437630044,9.002193649657462,-3.1136626897905515
2.66015625,0.6729707555195578,-5.693022528400789,7.780925011333105,-4.446001101838224
2.6640625,2.0656330993978482,-4.229175053690005,6.284534831876376,-2.1627678472228555
2.66796875,1.6534678821022144,-3.9978262019413533,6.321626712213029,-0.21194157958922943
2.671875,3.3088798028891593,-3.5798028958550616,4.551155881919426,-0.14410673345987846
2.67578125,3.116859078157569,-2.8061919900962224,4.301380376808554,2.146124501930096
2.6796875,3.5519042637082467,2.6234238309009017,0.7636822414269063,1.6287440485277054
2.68359375,4.016746742347524,4.878506111802791,1.7839203649510396,2.1985496047489694
2.6875,4.498778554021006,4.951158910906568,0.4929544452363732,2.640939024367174
2.69140625,4.860295681028662,5.518832761212206,-2.376332153671939,2.514008754300628
2.6953125,7.067481217859971,7.0815041188726715,-1.4899840214621838,1.9272598591610777
2.69921875,5.563393074128363,9.465113839747652,-3.5357207974693536,3.3668682851450606
2.703125,8.35010014300657,6.234145132201114,-4.257469735349162,2.1066164091206074
2.70703125,7.102489489791137,7.421621874911625,-4.378931665440346,2.3760074076125726
2.7109375,8.063216413493048,5.353815972689924,-6.2079633019911595,2.9666552345502653
2.71484375,6.565345854252297,8.084832807670228,-6.673065357814409,3.039046364941975
2.71875,5.796165216649365,6.496056650565382,-6.271174472115814,6.205131682109119
2.72265625,1.986307795936913,6.106841232635077,-6.138459110723826,4.721382001457364
2.7265625,-1.065270981709991,3.9999936593203795,-8.287244977112216,2.505048421841552
2.73046875,-2.9749338907574714,4.513572004330963,-8.773626318339787,0.9290572224066085
2.734375,-6.298090069590621,3.6133142346120457,-5.895291053621543,-1.1475108632725823
2.73828125,-9.281028623153611,1.9898267340940399,-4.401555903813048,-3.515684892785645
2.7421875,-8.40251393155158,-0.4342330139297486,-3.012814464433484,-5.767797369496102
2.74609375,-7.982468517930898,-1.8442169289992165,0.09199296925207828,-8.173860397785432
2.75,-7.771327824477937,-4.70697798678385,2.536994376684615,-8.232261227659162
2.75390625,-9.284185674468167,-7.109895419818823,3.8729746171658466,-9.891490353335318
2.7578125,-5.505097605512053,-8.888151056626356,5.743770644172696,-10.666424414511155
2.76171875,-5.177135744999476,-8.458986903224812,5.191117948723634,-6.0246002458230326
2.765625,-3.688988023917598,-7.319394688613945,4.947408981606608,-8.23467857423313
2.76953125,-2.0104657685432588,-8.744613210168819,5.544146380077964,-4.094052675287576
2.7734375,0.1772221728648855,-3.706222122337981,4.020228045075766,-3.4701844060031535
2.77734375,-1.8563031382525346,-2.720344228753248,3.7479430306804535,-3.7207046610702426
2.78125,-2.6882435980144175,-2.5650379839583577,3.790272735654696,-1.1856817535482647
2.78515625,0.4660921456577629,0.23848150250318745,2.736094932638484,-1.7229905950889775
2.7890625,0.2687561956473436,0.46656087799668733,2.614015069688522,1.3135772632829417
2.79296875,2.289618918929757,-2.4928879822500716,1.6850021502056751,2.8207680691714474
2.796875,1.3270207255241337,3.052426801579779,2.120738583888762,3.5996414935160383
2.80078125,3.366283836802096,0.4935667411468495,1.9603569414135058,5.177484487220735
2.8046875,3.9593385547146394,1.024050947919498,2.465735109696689,4.283023277413038
2.80859375,6.915552567225275,2.098082072816504,-0.12309490521258248,4.339135646142745
2.8125,6.337572661309787,1.7290750820957979,0.5694409353101454,6.4711368076430995
2.81640625,4.9921281060638165,1.5271261054753065,-2.237721986056871,7.25250152418759
2.8203125,6.4043249528693105,2.5622248229324773,-2.1233099772968544,7.19138182726133
2.82421875,2.954845094705817,0.6731023477379221,-3.581393780102337,7.928907601437438
2.828125,1.6535119388399453,3.4409351455793233,-1.7239994145697963,5.347140892480756
2.83203125,0.5300423620672823,1.288284503520667,-2.880109912699305,7.611618504752503
2.8359375,-2.5893157139112195,-0.14229024609707963,-4.464464129909967,4.387961676741026
2.83984375,-2.542199146706215,-0.5120235273462755,-1.53145509533989,1.8690685621681173
2.84375,-4.2897999390876445,-0.13387795897904187,-0.4679687478589846,-0.16662511541318192
2.84765625,-3.5299005917641297,-3.0887505439423193,0.9675599973798916,-3.131071140070826
2.8515625,-1.384700581590891,-2.9680741353379183,1.5458388830509087,-4.853704695829489
2.85546875,-3.0443400045673217,-4.485449477793128,5.1439579026078945,-4.425408612605828
2.859375,-1.791597629634822,-3.7773101049153377,4.71941375623466,-3.470951304492621
2.86328125,0.3705561890813227,-4.910503307522585,2.8332230111030423,-2.9438331591611266
2.8671875,2.202857500598335,-3.3916955392806067,3.734812377207726,-4.476370459596351
2.87109375,1.0075659106736412,-0.3425372999393066,1.7546246382420108,-3.0743974521867825
2.875,-0.28222644660622187,0.029148912990644593,-0.5779783140092993,0.25497021286121924
2.87890625,3.5529502639001236,3.450190746557768,-0.38695452134284924,-0.4747253797880864
2.8828125,1.08162711342377,4.371634047604573,-1.412389618955768,-0.590253692558582
2.88671875,3.170615179462346,4.452090799024328,-3.358754384376825,-0.3005934762312366
2.890625,1.231698615232172,6.633433402203852,-3.605594695508814,-0.69323590341418
2.89453125,1.191373254867496,7.024284804095939,-3.6460563182487973,-0.5816452999247366
2.8984375,2.7861946825448616,5.731287017791729,-4.559228372529905,-2.610073185433686
2.90234375,4.889218823484153,6.2398605539847,-4.123454836466803,-1.206594686203538
2.90625,3.4168567824411364,4.868387230315486,-4.885847920740836,-1.0982587309958174
2.91015625,3.2084256542299188,3.705153565136403,-3.024441626003987,-0.2686348201454911
2.9140625,4.851055820671203,3.130473468820248,-5.816395402911494,2.988614863200718
2.91796875,2.959217899150868,0.9020341549997528,-6.620810423806618,2.3670068892431093
2.921875,1.1130918406153567,4.717249787497667,-6.298236637624797,3.0252301555293792
2.92578125,-2.741763200332069,2.9581720499926343,-6.90438686585552,0.7763555819460559
2.9296875,-4.478002080439256,1.8487677906037443,-6.885745793692273,0.9437708405719741
2.93359375,-6.3028799082594595,-1.6018203626634107,-3.179385754964335,-0.6432320315292307
2.9375,-9.511059720248069,-1.7125756867486055,-1.3457451433413903,-2.147165905527314
2.94140625,-8.505959222348633,-1.1250661450936263,-1.7323150208670854,-3.7015909882483635
2.9453125,-9.324428720885644,-6.685432760651639,1.735464118487174,-3.8663937604377807
2.94921875,-9.028475554938046,-7.4131015263498705,3.8826261556654633,-6.887044374566744
2.953125,-5.93460521035834,-9.01504112060748,7.154273322865139,-7.614192026273371
2.95703125,-6.729707619563251,-10.92703990298256,6.957776866392412,-7.238268091524345
2.9609375,-3.3752445359732492,-7.795306542326076,9.741301106064864,-4.628743140771525
2.96484375,-0.8588616906078863,-8.0747239973547,9.163242224729654,-2.42008272260935
2.96875,0.776920734943346,-8.494150245572701,8.480362886496907,-1.813269277027032
2.97265625,-0.1687364916420091,-7.895952499930303,6.755709052418785,-0.9526350316795545
2.9765625,0.6296231592666581,-5.307811665847252,5.829388125500395,2.3421254425940505
2.98046875,0.4384502291160701,-1.5273347264543953,4.654795907427608,3.8324677311104383
2.984375,1.6258681012599894,-0.4538883404989149,2.6150492418612803,4.496921633928315
2.98828125,3.653384582384438,2.6793209673213108,1.9757837217044698,2.5981787610178984
2.9921875,4.96326475540929,1.7776071731001644,3.7338189298868265,3.293536845186182
2.99609375,5.8842116739615795,4.522995772045135,0.8428852001533267,5.123571550482973
3.0,5.439971548187076,5.904434309995482,0.3687505900655309,6.209592598514782
3.00390625,7.612321610366439,3.1457517848723673,-1.697843354175315,4.685807947811029
3.0078125,10.058912978342088,3.4041465031306632,-0.468054903353581,5.099736211035525
3.01171875,8.988673813929783,5.530510408713922,-2.7062541706342973,4.446880989017434
3.015625,7.406318905021605,4.271129493463008,-4.3333493597292305,7.118070250456786
3.01953125,6.861402591751335,3.663728229066455,-7.115497775680116,8.948490363992516
3.0234375,4.73491887454279,3.941767069778752,-6.099575861517399,8.662721510575654
3.02734375,2.6539312444059733,6.341218870549922,-7.98918755385156,5.8309787037591505
3.03125,-0.21148438491680302,4.997027000422741,-8.079948446763456,5.601182079805048
3.03515625,-2.587703085792843,3.367251042645395,-6.626746834301458,1.0340602533872871
3.0390625,-3.5044218460032504,3.1775893922879437,-4.314727862850685,-0.5184899767827714
3.04296875,-3.880261019095967,1.6310000329309062,-3.5202027498509194,-2.4110540021125404
3.046875,-6.652111446044374,-1.3341706029807403,-0.8073487935202761,-5.533082284041693
3.05078125,-5.46809630473992,-1.7726649886488857,1.0044091584421082,-7.145799902455961
3.0546875,-5.264931873753664,-2.878044318353005,2.781104893216232,-10.856423717053874
3.05859375,-4.569158520060105,-3.291842447195821,3.727176334633688,-7.77266365882921
3.0625,-3.7581343401270497,-3.7095186753586322,3.3834355884079885,-7.8852540449341495
3.06640625,-2.8649157800378555,-5.82332902942429,1.491448770569491,-4.964854281156749
3.0703125,-0.09305524153136502,-4.0759863311934055,2.3105979577255984,-6.1051511932304185
3.07421875,-2.3650239620268287,0.04779093036765758,1.9929406281277995,-4.862698292484654
3.078125,-1.6418827940765337,-0.5254865308963697,0.8226559095352717,-4.442244921087324
3.08203125,-1.573756952966546,0.71260855619754,-1.1122534144681135,-4.556359869770268
3.0859375,-1.8251022975541689,2.9090432519780047,-0.4984222551512097,-1.6217689318261554
3.08984375,-0.9184077718646024,3.3803419893774143,-1.755360024734274,-3.829171086272061
3.09375,0.7272045478558347,4.857154623859788,1.2298045181592125,-0.8362619253194434
3.09765625,-1.0849823334475321,2.069188199146281,-0.27313120688328696,-0.06581771104427914
3.1015625,0.6883659687056771,2.077060133688666,0.13170404338417807,0.41599401473959297
3.10546875,4.31605932497247,0.5275554417754884,0.40628215061545414,0.46184764535449063
3.109375,3.784747705834227,0.5428581622726176,-1.0684612661005084,2.73108850578526
3.11328125,3.08736169968498,0.3364145002388494,-1.0163992141089826,4.187499710464095
3.1171875,2.4769499834903344,-1.041737240215121,-0.44199572560520184,2.735512748561006
3.12109375,0.9259870759683487,-0.8864527480087884,-2.3893733114794964,5.03820057470576
3.125,0.06819173804314693,1.1756821140196307,-2.1138722315709693,6.712813733916222
3.12890625,-0.4254423302257351,-0.522696149406305,-3.786179711810193,5.3375341609523925
3.1328125,-4.0972059532303255,0.06254649822300407,-2.5218424172224148,4.187061820895023
3.13671875,-4.112554745209362,-1.7718360641730517,0.1658018677990879,2.1045733725870477
3.140625,-6.181803113585811,-3.9367655561298474,1.578356054557883,0.019239926575896737
3.14453125,-5.521644202168949,-4.777676802063443,4.305517087458759,-1.1990047006914082
3.1484375,-4.79669560728493,-5.36045282291847,5.568855382507106,-3.0769060662076866
3.15234375,-2.9853462578314582,-7.537375625252322,7.897595654831459,-3.9355324420619247
3.15625,-2.2103145786958622,-7.699131445901752,7.041515652379744,-4.6073516492547055
3.16015625,-0.8653497715336296,-7.590616667484323,9.624324943971391,-2.8628450787053485
3.1640625,0.48198807483723516,-5.538404634578264,8.540186383119842,-2.494650025813346
3.16796875,2.0796711093254263,-5.404461747735233,5.650467850140503,-0.46568949664045467
3.171875,4.898337851471099,-2.257976009059884,5.489650705394517,-0.20422266055815974
3.17578125,2.098446402181591,-0.2291509634090838,2.69727159082483,1.4230236222103179
3.1796875,3.5350510944859797,1.380898088052058,3.43388835427093,1.802134774247507
3.18359375,6.6172463455627035,2.877515239706092,-0.7883626364669981,2.7563204424660523
3.1875,4.136617988332116,6.65054450163257,-0.1779019531102507,3.5459439416414735
3.19140625,3.847366549549399,5.341011722954661,-2.134701522865678,2.2022505993640014
3.1953125,5.570325965977325,6.116071908777355,-2.3816313995806024,1.7192037810996004
3.19921875,6.903539400822579,7.721744440771474,-2.649316363046322,2.6272756854966834
3.203125,6.364659793568667,6.8656428211104386,-4.556041272979336,1.7836111544877378
3.20703125,7.1070240983125155,6.366417237582822,-4.882150822048526,2.534492598337425
3.2109375,6.795490491555774,4.05147814755248,-4.728191235887082,4.257084847418769
3.21484375,6.4637776234761954,6.1922770603740345,-5.961745048263282,4.437249307342126
3.21875,3.7678723217591727,5.8290257374019,-6.814830701975229,2.368114522358917
3.22265625,0.8221427470946108,3.3514066094116655,-8.581837992505363,4.471554068448366
3.2265625,-0.22281235926109377,6.335626016050396,-7.602150726560684,3.97344340697942
3.23046875,-1.6364727690513103,5.0025487097918075,-7.086678094421565,3.744217339061419
3.234375,-2.919428003286939,3.7665037468965545,-7.350326155814384,0.5475609554136722
3.23828125,-7.183420517292043,2.252983971548551,-3.238869386765338,-4.189536960225794
3.2421875,-7.947307465846994,0.2842346929241699,-2.9103486356090684,-6.030288273808396
3.24609375,-9.195952769712916,-2.995659057743841,-0.07721167875342931,-7.971229430495162
3.25,-8.20595529549216,-4.557780095822501,0.9888227509131218,-7.13847857565369
3.25390625,-6.91974818934941,-7.478065454859147,6.584802075269501,-9.70684255253814
3.2578125,-6.1562258390718405,-7.89257859957185,5.222107873866292,-7.838905317588466
3.26171875,-5.1635214987630365,-7.142422865629523,6.192788463294043,-7.0867660322888275
3.265625,-3.0297553301886575,-7.500150796180715,6.331899618882802,-4.834364538713452
3.26953125,-3.6346761774904603,-7.037455468933414,5.818076431271091,-3.9151486549358676
3.2734375,-3.338340308222098,-5.464062343424731,5.26685416911719,-4.036550611610404
3.27734375,-0.32803259884469904,-3.6559070631719024,4.074446072921742,-3.247594593556615
3.28125,-1.0705760910667446,-2.5725808585911736,3.1533475302066414,-1.7480962835929206
3.28515625,0.12395135717394512,0.46244041675324565,3.262727995674404,2.092747834417483
3.2890625,0.5094098704961041,0.16937553169903713,3.001965333715847,1.9014643912548448
3.29296875,-0.9845348207762683,-0.8577102929503453,2.505421304824134,1.4808338157267613
3.296875,2.070544215658546,-0.8886567489297024,3.4473178016580492,1.6573610532691994
3.30078125,3.5736890999813076,1.2390328890467834,1.6032256947389274,4.615350668956159
3.3046875,5.2080297417120205,0.8849133963102576,1.9967643303017877,3.9131139088720452
3.30859375,5.5271168098041805,1.058622951370984,0.3949323887437872,5.924578502818347
3.3125,7.14621633142296,1.8671497944328757,0.7316375134453448,8.269522644336682
3.31640625,6.4763132326315604,0.558096073350975,-2.5535611706506516,7.586652580262553
3.3203125,5.456409861720626,0.33165777981987565,-2.8897876636470907,8.285585298569817
3.32421875,2.844046676978956,2.2756555524567577,-1.3257737548082416,7.671625406267487
3.328125,1.0557307702806964,3.295644087660885,-1.2511110231672133,7.759174847267915
3.33203125,2.475735445804021,0.26115735596077605,-1.6179674082703372,6.516079102845546
3.3359375,-1.173825468708035,1.5486889020695949,-4.311542084858614,5.020898871058509
3.33984375,-1.5863294760453632,0.2906676519208725,-0.3627359174099949,3.30659583269904
3.34375,-3.6964550267834557,-0.48893412327565033,-0.8417776863634555,0.6456342829550537
3.34765625,-1.3736592694798497,-3.590296966836892,1.9976472022676672,-0.5827184671545544
3.3515625,-3.023289044257574,-3.962481991782899,3.416183547190475,-5.063398506646196
3.35546875,-1.7497045030229177,-3.9883051887428866,4.18602205591985,-4.41300047819224
3.359375,0.6465406142505801,-6.212998344039926,5.38978958172531,-5.27490925614624
3.36328125,0.7768819834597059,-3.0089671804892335,2.9433996198202976,-2.8298501739990027
3.3671875,0.48841049223332833,-1.1492277821451329,4.211517274518535,-4.025636071907464
3.37109375,1.1434005018408624,-1.1536045341145278,1.6208853184008314,-3.776228080418174
3.375,0.82600762555309,1.502029155325427,1.402471557026837,-1.9593505432503524
3.37890625,1.6201081985817105,3.7181912051882997,-1.3378955700944337,-1.230109633493075
3.3828125,1.2880193665311566,3.3347634774402257,-3.3168643547733465,-0.3717582518532098
3.38671875,0.31593871886047875,6.781430668190094,-4.332599889072431,-0.1845743298918261
3.390625,2.7220991355371527,8.298854891160603,-3.246155620612656,0.055086898143039464
3.39453125,2.407163646658899,5.633633977208397,-3.729577874595722,-1.1298181203275395
3.3984375,2.7527730038601956,5.883111893945764,-4.37955443726259,0.5620102950850048
3.40234375,3.3827688636982223,4.8231927741273655,-3.8077606257897036,2.1544106576082935
3.40625,3.1307927948497936,3.9341955126964203,-2.653235633150873,0.6827201315690573
3.41015625,2.2571946401140206,3.3184514650418158,-6.236759209881768,1.395498707559458
3.4140625,3.027707340109051,3.004770103988486,-5.9481812585632845,2.4520889925192844
3.41796875,2.7962417075934902,2.7578466883246056,-5.190633198106826,0.8229357544409053
3.421875,0.2801436770001445,2.013589543831185,-7.718538474268794,0.850142784738638
3.42578125,-1.7304110517975895,1.7282534834022203,-6.8095806587270875,1.6895172936936536
3.4296875,-3.169504935418604,1.0248673958957544,-5.011231023262757,1.5811862978913322
3.43359375,-6.297671331674219,-1.1370543479157693,-3.9708212635221667,-1.3393141366018841
3.4375,-7.134487668471213,-0.9345229680173778,-2.652863526635797,-0.5016756254363264
3.44140625,-8.539032639642183,-3.9408022778698073,0.210530323535552,-2.6357483270309436
3.4453125,-8.806923886985107,-6.529032122109717,3.305550968334564,-5.700947708725987
3.44921875,-7.315884981832218,-7.533007812276786,3.8568581812758054,-5.572878126317441
3.453125,-7.001745725997586,-8.983241727120232,7.08982589070098,-5.916530381333876
3.45703125,-4.12364415075959,-8.384444156539718,8.151747150458966,-5.930471965838584
3.4609375,-3.9852785011653475,-9.129253660671274,8.427747195700748,-4.457739906947481
3.46484375,-1.490409830978673,-10.247535253116677,10.032117020378855,-2.9285217215624906
3.46875,0.7981755002502018,-6.7953477942413585,9.831601267736163,-2.7056428777224584
3.47265625,1.0794834615840734,-7.999908783400672,7.395056689115615,-1.691792407293626
3.4765625,2.3758346242227466,-5.255085901094628,4.806074390401909,1.4412326844666694
3.48046875,2.9110885413697916,-0.480119802634265,3.2007103947131066,2.333868230935015
3.484375,2.5236683227094243,0.6638864344771984,2.5407719828480344,2.387656872700111
3.48828125,2.765314754773906,3.632874227125681,3.721699596613723,3.2594494253672566
3.4921875,4.489100480691182,4.278521732992417,3.090524146212592,3.927123069609337
3.49609375,5.736749433657235,3.3180217470844817,0.18795530193856957,1.9489840947588402
3.5,7.337122299858692,1.5431986907584099,2.0116982046323653,3.9247480850090968
3.50390625,6.296581147392473,3.8535323838275666,0.333856603196904,6.611148080689016
3.5078125,9.35684403845488,5.212942666755327,-3.27497606043341,5.2454507524641105
3.51171875,7.586072603757238,3.9155892332834905,-2.3757348885645477,5.967834579268029
3.515625,10.507276167973265,3.7091637073677965,-4.794950692762636,7.897615169104698
3.51953125,6.231483984844104,5.434825365153275,-4.489294404031218,5.526538515722786
3.5234375,4.572463932568655,3.7446594543785943,-8.9175140291906,8.001850813284815
3.52734375,1.684595960040857,6.159448232017088,-6.826268762130469,7.854726004679219
3.53125,0.3340936217822541,4.391740033635637,-6.5426426130515,4.456263084861673
3.53515625,-4.266741859545925,4.829230920215803,-6.767356742358731,2.9433483493108374
3.5390625,-3.7476715444387274,3.016415126197744,-4.213932425313098,-0.3070344519688185
3.54296875,-5.231891198964552,4.964190648277582,-4.623269073930093,-2.9766361858143755
3.546875,-4.084926556336207,-1.4388077401251076,-2.912049201935969,-5.175171877605102
3.55078125,-6.5213934486813,-2.68537386243243,0.2507533634610053,-6.237204242426342
3.5546875,-4.419839649287361,-4.1579687395480995,3.2337438462910617,-8.834324183379165
3.55859375,-2.1626024009798672,-2.7503562101623107,4.016664751047756,-7.7723722604426015
3.5625,-2.1299220007830835,-4.852637651733419,3.019646940743793,-6.1653187862511265
3.56640625,-4.386388318375441,-3.670886167649265,4.153596277385269,-5.855878621696621
3.5703125,-2.7566206412589342,-1.966120397415436,1.935668187462138,-5.095352768806356
3.57421875,-1.8526690074350174,-0.13484110027297636,1.1869558108302016,-4.892835362179644
3.578125,-1.9677971128574296,1.8563241953738148,1.0680265550338222,-2.5400794257033477
3.58203125,-1.5607131810523096,0.7917300597127467,0.030308703105595386,-2.6730324955965012
3.5859375,-4.027242201877694,3.341138137750466,1.4805371018062468,-2.329092744686274
3.58984375,-0.114358690693243,2.523580414826603,-0.6983387784497446,-0.3886255567565895
3.59375,-0.7543006277165318,2.3079398526644206,-1.2117394925995957,-1.0797009623452185
3.59765625,-0.7834140294328078,3.68721724269341,-1.839442870959246,-1.0059436100907635
3.6015625,0.3302094843716461,4.120486003153973,-0.8042684880018334,-0.9168021349799039
3.60546875,2.077039151998441,0.885385097780305,-0.7651840749784693,0.38404877600019427
3.609375,2.9428672941171126,1.139307546582132,-0.6942314782144405,2.769435748202411
3.61328125,2.6708380055878953,1.7234157565785966,-2.2924495796375695,3.5753272386761688
3.6171875,2.9871528294692884,1.3085007591717372,-0.9259115342737076,6.372112560695776
3.62109375,1.2844300925925,0.48686226506151237,-2.9484354750813253,5.408564607275232
3.625,0.2164125175815591,0.5312639220232718,-2.439878729977473,5.99257049269549
3.62890625,-0.43247303058161246,-1.427598197741803,-1.4898843230384724,4.929735923090094
3.6328125,-2.7414650432278447,-0.2674549154061151,-2.409520750761149,4.858495984072164
3.63671875,-2.010469012847037,-1.5888535720488925,-0.04319234982655412,2.150972678754435
3.640625,-6.056836240685962,-2.665850192343812,0.23297717866335232,1.6737977518015525
3.64453125,-5.3365466316651915,-3.584833289285508,1.3888965534504383,-1.996911685194088
3.6484375,-4.562438306687084,-4.08669532199748,4.65460722870688,-4.259256460068385
3.65234375,-2.7789530776160425,-9.21700908814851,6.310057507060963,-3.389737197789533
3.65625,-2.2767488873831576,-8.226468398807274,8.669162328444234,-4.036210713671876
3.66015625,0.05638919580574414,-7.62074905368232,7.831989021140488,-2.213208723750803
3.6640625,1.5004431565128968,-6.882264264190599,8.499847696563338,-0.7711968749335061
3.66796875,1.820278737574955,-5.6656141939773255,5.642744314045996,-0.8750364879947086
3.671875,3.914834450227894,-1.8551369239844728,3.843968781646068,-0.6019780838483517
3.67578125,4.143349059614791,-0.26365285390948984,2.1984439508644424,-0.7064556848993386
3.6796875,4.357585049069328,2.6114924255680947,1.3651568859670764,2.6295356992203582
3.68359375,4.340758759829528,3.3449025107154426,-0.511497180060287,3.0173770539081084
3.6875,5.2063547352080874,5.161187387436729,-1.6398426733162954,3.5403579927796427
3.69140625,6.083489680242595,6.247365052331163,-1.6657149495337804,1.8285087111764147
3.6953125,4.9095085876734705,6.804401953120997,-2.4634794691680395,2.1525503149196945
3.69921875,5.210598183646234,5.642298979059066,-2.3078201835083503,1.3828913993296135
3.703125,7.284928980435416,5.998016467590559,-4.803954676599242,1.882630303683249
3.70703125,6.607774525603797,6.3537593392636555,-3.152924903692588,2.2407419262001125
3.7109375,8.645878590943122,4.785660376778657,-6.226696944310104,2.4731787731866692
3.71484375,6.144172835135119,4.736305242661378,-6.927641010218469,3.892909971345979
3.71875,5.935518406850727,6.2601255141924295,-8.738853683593476,4.261146205015924
3.72265625,0.3878772313832628,6.078154461936996,-9.35704255280227,3.664340380892303
3.7265625,-0.39666128643485293,4.884230085886892,-7.072563762935768,2.2608818176723533
3.73046875,-4.777526799485411,5.945300666470331,-7.765680082769138,2.548896814748556
3.734375,-5.415987530020887,2.721098928699046,-6.086856562530354,0.03933590446714719
3.73828125,-4.643966250659901,2.6822563829867208,-4.063067491217722,-3.4663945915905825
3.7421875,-8.986005669669286,0.07206095861615847,-2.8514609202230843,-3.700562635806196
3.74609375,-9.215355655784773,-3.9100558701597787,-0.6279563309490108,-7.166069757191617
3.75,-7.073678426272123,-3.1968427587288715,2.9043857792455707,-9.00315157542363
3.75390625,-8.926066140233202,-6.056064719753949,4.045808732277509,-9.838838924597708
3.7578125,-7.676469861309172,-8.225937943943746,5.122581374145585,-8.566549670710787
3.76171875,-4.730361657723831,-8.584064937894324,6.644104683388661,-11.092589009931693
3.765625,-3.1577626999234214,-7.117483230501648,7.825254861010004,-6.348596031941233
3.76953125,-3.320440118719788,-6.776695743788795,7.2532783946221775,-6.049885161924562
3.7734375,-4.341883823587548,-5.463417734363512,5.437160980584022,-2.073479128318279
3.77734375,-1.8695784818368812,-2.974491515833393,3.121298857389374,-2.907471435165071
3.78125,-1.3179985535815857,-1.4637838425250935,2.6867831905542285,-2.2426288550323195
3.78515625,-1.7300573064338687,-0.6327920783171515,3.4456077466884114,-0.6739928221723223
3.7890625,0.6364853534525141,0.20420775183355044,1.9152028458632375,1.780665494475729
3.79296875,0.9104146102762467,1.3914886461363232,3.041237770154134,1.851832194900719
3.796875,3.322477756363825,0.3548698082309225,2.2602814400552163,2.938122581558138
3.80078125,4.276088498434796,0.5587647123432231,1.6422722600072817,2.011107572234998
3.8046875,4.8132561189684635,0.6698276442127323,3.9582970308236094,5.146309308019812
3.80859375,6.4112655174799995,-0.18067765423641002,0.20852516984264902,5.684860460471766
3.8125,5.134142490559842,-0.041044648936955475,-1.356192256235515,8.805623190925226
3.81640625,4.783326068953806,1.0772119139209175,-3.029283430345381,7.931515768277755
3.8203125,5.827892015095199,0.8655772217826664,-2.4128019703423886,8.85944162361292
3.82421875,2.801521328358352,2.540948578687616,-1.8652433178107581,8.13053978355701
3.828125,2.444809409664124,2.186132514890306,-4.275029143836498,7.339572454572759
3.83203125,0.2512934131250725,0.8186493117375138,-4.635852940403712,4.318541192646437
3.8359375,-0.3736805470777218,1.9287340746501997,-2.2997347316511836,3.9705738279398806
3.83984375,-4.751184201495727,0.9082566177036911,-0.7017306694840028,1.7368048499180708
3.84375,-2.0258187831201564,-0.4275226886645226,0.30380680650552183,0.022612758545450307
3.84765625,-3.206977767109779,-2.825513059498907,1.2569937687449928,-3.134870224122345
3.8515625,-2.8340243999852115,-3.748830378405244,3.1971207796012973,-3.197386751168222
3.85546875,-1.2037923437028897,-6.475730119617651,4.1967056687198525,-5.811890318796445
3.859375,0.7344518788012155,-4.219455412450421,4.327990182621901,-4.375006438918545
3.86328125,0.5460404394267941,-5.2950324636686545,2.917910671951143,-4.228926908811647
3.8671875,0.4699704594358015,-3.5377060842970542,2.86217419772771,-4.658621987284022
3.87109375,0.9113679339680684,-1.4621597129311321,1.3371533513177671,-2.7721666031383845
3.875,0.9838101289401371,1.9339940994109952,2.023904175630225,-1.9618136631377143
3.87890625,1.7560353493271337,2.7182433277195392,-0.37333498327298864,-0.6273942832089177
3.8828125,0.9114110179343448,5.194726232097724,-0.4917552963890024,0.3345913193395844
3.88671875,0.8044019711531524,5.589926131640893,-4.277165426451472,0.4211863649936245
3.890625,0.13385922704637876,7.37684751362375,-4.149211400460858,-1.054634704800422
3.89453125,2.3868336727737227,7.816260813303746,-2.856341005729368,0.7514768959459188
3.8984375,3.7594156870351263,8.624906811768078,-3.8745327150656284,-0.4143442627965975
3.90234375,4.385167672244473,4.496447188718161,-5.464088252880294,-0.9571002310458816
3.90625,3.7229802526107973,5.059205251897518,-3.4798690473145033,-0.3226853354290544
3.91015625,2.0581640895365774,4.33541645973807,-4.0477513965022895,0.8106929753696953
3.9140625,1.6533189579673904,3.0505321123176063,-4.1479904189801955,1.4449355609252317
3.91796875,0.4906172590456772,0.8788865285861671,-4.979264134731604,4.767559307778356
3.921875,-1.8685322292152085,3.2337921788104356,-4.6143394548386185,2.3224612315289637
3.92578125,-2.5110345639124283,1.3955001728118734,-4.286282958045758,3.0067782201111917
3.9296875,-3.9964994156355775,0.6343130015553139,-6.365625680471405,0.811435289980168
3.93359375,-5.78473251169488,1.4176844022928148,-4.532953184834376,-0.1436105477444488
3.9375,-9.66332913104644,-3.4976871633855215,-1.0228217110224076,-1.9339275489694217
3.94140625,-9.585528145109922,-2.656128891054082,1.6956075685207719,-4.263692834185638
3.9453125,-9.25164197776686,-6.359663611913147,4.23237102569238,-4.675662625833407
3.94921875,-7.321248428047483,-6.817194442157277,5.684953113385781,-4.406295157802623
3.953125,-6.735108146693348,-8.308790354652873,7.606307660893832,-6.007516691496895
3.95703125,-5.157304767175916,-10.382875004472199,8.47683022159317,-5.249533243381131
3.9609375,-2.037426967935185,-9.682590219849898,8.787819568061064,-5.320042679883462
3.96484375,-1.2390920582522005,-7.960881585601243,8.577765380505175,-3.177435161500819
3.96875,-2.2002453802835906,-6.144715770861842,8.144518564862867,-0.6488189849889077
3.97265625,0.25416765630059857,-5.084044060163982,7.895886447799957,-0.968314615620378
3.9765625,2.82631886398422,-2.7814760222037718,6.347534216299295,1.9596611177491676
3.98046875,2.8067730038033445,-1.9120654595488618,4.313739719999505,2.9927474470992825
3.984375,2.5413803273432385,1.2021712526183097,4.226726119457096,1.8070572036134438
3.98828125,2.470867781710395,0.9499424571046688,2.3211190274799054,2.898478829445599
3.9921875,5.017731260649105,3.0155199402052233,0.7845283158901157,3.850398239805185
3.99609375,6.7525048321234395,4.163000790922059,0.5266294169237627,3.55846734201507
4.0,8.03306098192145,5.414418413860683,0.2943532757725039,4.386323318290789
4.00390625,7.651483747642228,2.6973849943562223,-1.6021647608362142,4.459384635438882
4.0078125,9.061602332807254,2.929713065944548,-0.27744874264384123,6.105421924526858
4.01171875,8.089825856314347,3.6581725819472877,-5.175951116462882,6.395288546279598
4.015625,8.19554596319078,4.489631589456181,-4.345945846127103,8.84926394121914
4.01953125,6.809015647260002,4.802229339703304,-7.5952454156772,7.801609174648091
4.0234375,5.3158220439819335,2.4600916192598894,-7.454836899691836,8.011033631101494
4.02734375,2.344112227189719,5.439123975224938,-5.661844832511197,4.301373134374128
4.03125,-2.512436673862557,6.456229968618843,-8.817081216937279,5.216759586114661
4.03515625,-0.6842174041591418,4.882851543692285,-6.435764698988313,1.1278118867102802
4.0390625,-4.006224981529777,3.2892360443096322,-6.24985926861823,0.5868558516406861
4.04296875,-7.102387528852889,0.10038532737209871,-4.272275813928863,-4.36895001106811
4.046875,-6.446531458314275,-0.7218408677871984,-1.8482275285837877,-6.410841111664629
4.05078125,-6.897183879343125,-3.1347896346041386,1.4340606834569107,-6.821123023832927
4.0546875,-4.594859391551334,-2.559981611795789,2.515037317682196,-7.587167316604042
4.05859375,-5.1775049266958195,-3.962363892919424,3.6172713772593497,-7.704109912508413
4.0625,-2.839040760233054,-3.580567269866167,3.6862145636613213,-6.604286943712371
4.06640625,-2.1988455552502466,-4.960030781614655,2.6647725344171764,-7.938134046445127
4.0703125,0.04089050686684903,-3.1468014994358575,2.7627305018953145,-5.876883976575141
4.07421875,-1.5971950572089986,-1.4007560936148498,0.680729532697294,-4.87007221802162
4.078125,-1.5829471333065492,0.6761732259271183,0.2279186298229633,-5.264706884680506
4.08203125,-2.2480603127483194,-0.2531736968938998,-0.4119557276853382,-5.067473169306923
4.0859375,-2.3927003428090567,2.6805909987856533,-0.9841831899957303,-3.103802474613026
4.08984375,-1.4394550232378365,2.156021465410015,-1.4027210270224244,-0.908636168373564
4.09375,0.5611755250227688,2.3088302730532915,-2.5152906636590004,-2.3582420169553515
4.09765625,-0.7360598267237759,3.594565527931466,0.3038553403882345,-1.7396287080029178
4.1015625,2.1965320690069587,1.080534345291646,-0.6820355616714282,0.2881929636164232
4.10546875,3.288747566896833,2.371830896877299,-0.25802279748972884,2.1187596700914537
4.109375,2.4367780590968655,0.1625639443800117,-1.3819599504260078,1.8119807666647225
4.11328125,2.1265602941433293,-0.7481587087996606,-2.1124527931343335,3.7628521225750626
4.1171875,1.5810543128328376,-1.1977284702631847,-2.926776792526384,4.799343079915695
4.12109375,3.3561698247228824,-1.2585782721000889,-2.4472458105041692,5.2124119337264565
4.125,0.596782079563021,0.27076239782339095,-3.9059558827088385,4.766869076086858
4.12890625,-1.2040302783690937,-0.68174222207461,-1.673823897448459,4.59560101228853
4.1328125,-2.5271433138225965,0.03151146917854064,-0.880695511780833,3.921992926621192
4.13671875,-4.901569448790121,-2.743686775789345,-1.5905723155144302,1.8869520673326656
4.140625,-4.730661498211382,-1.936963198571422,2.3928050155237512,0.04996793998151111
4.14453125,-5.506694570054907,-4.447116540279644,3.9136995386312545,-2.949278521736056
4.1484375,-3.921848784977007,-4.036177181818649,3.8179599486779114,-2.582990476206483
4.15234375,-4.3822668027964475,-6.507403742087096,6.51816944837055,-3.3245067376031265
4.15625,-2.295036968464093,-8.126937576824753,9.238763749123514,-3.026184160111321
4.16015625,-0.7298852957823705,-7.711297322371589,8.581222973020122,-3.561228880703564
4.1640625,0.6634782035196849,-7.544070915394023,6.7308440906453715,-1.0246334214400066
4.16796875,2.4315081540818633,-1.9206718620902032,5.966096312597568,0.3930926829138064
4.171875,3.816553121375678,-3.6747644335760006,6.444452404663892,-0.2585782890291597
4.17578125,4.088173648007464,0.7643717086630253,3.6958641418776783,0.6397555134068394
4.1796875,2.5928014027482176,0.6781651206892481,0.4789864745223005,1.6479958162329114
4.18359375,3.8309549918308865,2.942101208330637,-0.4382659555843452,2.465715501921347
4.1875,3.241366878969692,4.082689390794744,-1.3906174374259204,1.8843313449201404
4.19140625,5.753698354592089,5.568029117831105,-1.8047299454108736,1.962278118827749
4.1953125,5.199030888654077,8.182452619303994,-3.3917536817543876,2.5605003981859595
4.19921875,6.266143616327733,6.269247018528251,-3.738738602363223,1.967704713284872
4.203125,4.884852615825519,6.6488648853031425,-5.270928576860463,4.850241310206947
4.20703125,8.452007197226447,8.142903754324902,-4.1684486085361545,3.1830787959238376
4.2109375,5.859612928113149,7.46129125695891,-6.249380706030729,4.324338712355109
4.21484375,4.655809793827074,4.904958871487707,-5.293901993057284,4.074900025304139
4.21875,3.5480202181795297,5.50861202994534,-9.679292133287632,3.9182167887748762
4.22265625,3.6652618186128336,6.428121382016549,-6.877268023839107,3.8566631123189996
4.2265625,0.07343477841027446,4.085287754054422,-7.528822457167859,4.3462854540488784
4.23046875,-2.9488982049352996,5.256478198650501,-8.632823986087491,2.3680217865049977
4.234375,-6.2337502688778645,2.8732053305945877,-5.52690727746709,-0.8038066712912463
4.23828125,-6.164609470211602,-1.2810608388740206,-4.395221296566683,-2.382931425770191
4.2421875,-8.922040300248842,-0.6488573161116031,-4.190348531085114,-4.266286047923439
4.24609375,-6.957161287892333,-3.0233946777881266,0.5902658424803088,-7.236409757608192
4.25,-8.9107969029015,-5.5661323649965935,2.884763497249819,-8.176719704461995
4.25390625,-8.050900102062124,-7.682865431519969,4.052198978863369,-11.306471552976348
4.2578125,-7.241220901575992,-7.127918984383774,6.339316685038922,-10.460386578264652
4.26171875,-5.746265453771336,-8.895556305688356,6.363062741959306,-8.651989541694647
4.265625,-4.378535943228716,-9.184945427772366,5.795568083992874,-5.843399066977826
4.26953125,-4.629865002357197,-7.631640435123005,7.916072836834379,-3.766951428849773
4.2734375,-2.390840943705368,-6.3222223451196555,5.5873597966416035,-4.199054456293001
4.27734375,-2.593984927349708,-2.912036542563416,4.215502887267745,-2.383709635735074
4.28125,-2.007998290646354,-0.4730888301142193,5.35483174992571,-1.801887144722571
4.28515625,-0.4160397962322836,0.3611634228988174,0.8437957733129235,-0.43030022482301655
4.2890625,1.4548997642441712,1.7625283059681858,3.4495298871896263,1.53644143551626
4.29296875,2.7163338369047336,1.646406694480329,2.9170050688103286,3.379075012845713
4.296875,3.683346097012377,1.2215051902660168,1.3357580485575458,3.6961873719238816
4.30078125,3.8780873086639103,-1.3626193767690817,0.6800556207225099,1.4805853597582017
4.3046875,7.08467988034138,1.7614476076368835,1.3562970543709434,3.6908864550322753
4.30859375,6.8668328788963695,1.5659859323226164,1.8822656826594155,5.140983502727263
4.3125,7.558277479592837,0.04004064189163192,-0.5199326535667664,6.385503464844046
4.31640625,5.881954914041561,2.211116429362766,0.1691227802665909,6.270807746101141
4.3203125,6.145488618223109,0.9645090097070647,-1.3539709999247937,7.687258960082605
4.32421875,3.666960961586084,1.2939698115421803,-4.732810873234667,9.219767473407416
4.328125,1.2637287011907876,2.791201400756178,-2.426622054320851,8.645439913640041
4.33203125,-0.11283745845011095,2.062164373593354,-2.276674196617602,6.9890067095453245
4.3359375,-0.9203630970209808,2.662965422039497,-3.088050408852538,5.11545685375531
4.33984375,-0.3673202967065703,1.4712459916966785,-1.9719820555520362,1.3119446729282578
4.34375,-3.3926171598686765,-1.0680715063770432,-0.586099323740032,-1.6711608270786786
4.34765625,-2.457322924465474,-1.481199500001388,2.386816268080202,-2.925101978450838
4.3515625,-1.8307930297812747,-1.5414859423519878,4.552909824566587,-4.0114357702689984
4.35546875,-2.1031580894520663,-4.678250124062107,5.446017381256107,-6.2156264458609165
4.359375,-2.7255741930079997,-5.373154990445058,3.7986096274032657,-3.2073874017686252
4.36328125,-0.993114783338106,-3.7421250858494526,3.4272442314592664,-3.470481279040103
4.3671875,2.221492717918691,-2.8840862767245508,4.462093227891186,-2.5978777244646056
4.37109375,1.159931370961115,-1.5065992778491748,2.905654860287215,-2.7019011958743264
4.375,1.673783505375488,-0.9163190959743359,0.9577643256158426,-1.2571312627190736
4.37890625,1.6563760427546015,2.792944586578293,-2.043231355815311,-0.6729389640618062
4.3828125,0.7411553675593443,5.209807738933581,-2.0607267779643843,-2.4793369377985472
4.38671875,0.4689220587781524,6.945157531001646,-1.2293205758856762,-2.242841948600092
4.390625,0.29057976910963623,7.456313104673477,-3.7115885512319986,-1.941112779351689
4.39453125,1.171271647057392,4.629178021537309,-5.731341777759459,-0.6974887342697879
4.3984375,2.825433143681221,4.719714474534248,-3.769866441024483,-1.7657908402409062
4.40234375,1.8215874816593485,5.109861113724488,-3.05772994863505,-1.2037032710215205
4.40625,3.3778439114068846,2.793162092773305,-4.526264880635153,0.6239955695279693
4.41015625,2.9483489297401952,3.3372091971930695,-2.6318259512369107,0.40901036384390765
4.4140625,2.6140195808795395,2.595798517243245,-4.925917316109407,2.5767746483701135
4.41796875,3.12883150678125,3.065855977412026,-5.593131413093223,2.435006368672052
4.421875,-0.8486262838419887,3.5299321506463963,-5.021106398139627,4.182623810842489
4.42578125,-3.278934186251317,1.5426013195574424,-5.381340649014378,3.5060734529878532
4.4296875,-3.1134935522992566,0.6348715949689169,-5.098470747219193,1.1823955657711136
4.43359375,-4.988043951493779,0.35969142629636924,-2.339197403313498,0.3732250137235423
4.4375,-6.026463400111611,-0.09164594166243889,-2.151313827317059,-1.89928145365221
4.44140625,-8.479803618147479,-3.661189124731538,1.6720214999050291,-3.493204680679121
4.4453125,-7.126933585155292,-5.964776142216487,2.5329579531132556,-4.537617104132107
4.44921875,-7.873042628695231,-6.435404658792435,5.248182074450237,-7.01843626234649
4.453125,-7.96432959365869,-8.072287509378356,6.669622510192459,-6.357606453990314
4.45703125,-3.6890042780523604,-9.33680157050273,7.651222030826678,-5.686618847207191
4.4609375,-4.170906257823183,-8.948140040208969,9.00467536356334,-5.716835168382903
4.46484375,-1.1733290455174088,-10.055311641361566,8.291631444782265,-3.557640701444245
4.46875,-0.05703692708658298,-7.637453941250935,7.859594823442495,-1.4497824122524263
4.47265625,0.5863966579780393,-4.105702864312374,4.833854757064547,-0.04143682601133014
4.4765625,1.7621072257178227,-2.5087979905871713,6.761293998110913,1.8393883308935013
4.48046875,2.6645566012567556,-1.4299249556245281,3.723732002967308,3.445825239904304
4.484375,3.675573148547073,0.1953330530524668,4.0572144023157435,2.2656058491774145
4.48828125,3.071199620034332,0.6727722289032663,3.7096157916707515,3.2157436285418957
4.4921875,4.3596492214821705,3.167034248674821,2.894554385470315,2.990800309738969
4.49609375,4.543321585240119,3.68730835430991,2.117836303596988,4.312011725984762
4.5,8.180773502426462,3.8430926246690604,-0.5753595515993478,4.517441752408406
4.50390625,8.691704069043068,5.385754661088041,-1.2602786272653717,6.161671755219725
4.5078125,8.06479512009742,1.9338365476023076,-1.7920769560135785,6.936255436275242
4.51171875,8.546702978104268,2.6073032183719573,-2.0354726546038457,6.227218692360063
4.515625,7.806764033842426,5.893067551957354,-4.363055347580112,8.220389786832953
4.51953125,6.278258994559712,5.999314309490289,-7.350682553554217,7.085434194193926
4.5234375,6.0214798377811425,6.91732090086809,-6.312332748567747,6.832007874750125
4.52734375,1.057769002093327,5.587372760326479,-7.4093247552934764,6.734258534084495
4.53125,0.9353681675009402,6.446473570148112,-6.915311653004465,3.4438235979509786
4.53515625,-3.406396291047399,4.798962887899724,-7.0664536323910925,2.560118642864516
4.5390625,-4.702902971333694,3.1188577023392514,-5.796367442559361,0.449732436167272
4.54296875,-6.477068743324021,1.628493522820333,-1.4727027355071391,-3.226315577051398
4.546875,-6.055794073955852,-0.41842262963044907,-2.2688215768778823,-4.776408221270332
4.55078125,-6.414228662471233,-2.0620406988455366,0.12815769456798753,-7.8295222664501996
4.5546875,-4.43594282025258,-2.8782230115191716,2.0969837676512078,-7.162743125256488
4.55859375,-3.8735074640599927,-6.476196114210843,2.8740796891824725,-8.96676536303777
4.5625,-2.976351558302224,-2.9215115250366352,2.689743563301579,-9.473172839268381
4.56640625,-3.313717651167668,-2.743611936625787,3.940033351713265,-6.336660256568804
4.5703125,-2.8728498882591165,-2.58898375933751,0.91744567592391,-6.021413026123271
4.57421875,-0.8722554612613993,-0.3312083809966022,2.3343201374691525,-6.03042742682774
4.578125,-3.2478248054357794,0.23214075192492334,-1.1196495401388258,-1.186477338625378
4.58203125,-3.1373996844617844,2.866100817074497,0.09017415974842674,-3.632093830483025
4.5859375,-0.786112442424819,1.923440882632856,-0.48535899524087767,-2.58095733768811
4.58984375,-1.887528874372209,3.3959444469466256,-1.229949371513129,-2.7675892340258326
4.59375,1.0200421152213055,1.7305289688438035,-1.5656006929319355,-2.505152323982446
4.59765625,0.603236715673603,3.931145541906551,-0.17649246901205096,-1.1969419378424995
4.6015625,2.58402684598843,1.2294610268410473,-1.7836368525160475,0.3340794703598344
4.60546875,3.552015904251355,1.3242098713264472,-0.4200972779176265,1.8557562718952008
4.609375,3.9412906753895056,2.0542236654366652,-0.7519978291348306,2.292883547526269
4.61328125,3.544739000820953,-0.20302332761401243,-1.6470298525470675,5.145974172932607
4.6171875,3.674468193076749,-0.23451992642506686,-1.0738681952366533,3.4602675079921466
4.62109375,2.982404921596107,0.21223094500672887,-2.6176675507314027,4.882238939873252
4.625,1.6968345759820247,0.5094993444227052,-3.282427722292323,4.2813476782374735
4.62890625,-2.761417368977098,-0.49216447715079953,-4.241894204367496,2.8079817148085944
4.6328125,-3.1806190526533875,-0.34881345791014085,-4.312556591226599,3.6908456426708316
4.63671875,-3.8314817292558807,-3.152135163264851,-0.8498064321457879,1.241803282155084
4.640625,-5.685486560553349,-4.106986327263497,1.2532800771955315,1.0398481147468637
4.64453125,-4.862349393422059,-3.8842677805966503,3.020000320870595,-3.300869190902338
4.6484375,-6.984841225708566,-7.121710052475234,4.425360132852771,-1.33883566143039
4.65234375,-2.573432479256544,-7.048905448117536,6.312715434666034,-4.91305380043688
4.65625,-1.1412043227878068,-7.8116753895700315,6.890768078800162,-2.2324514848812043
4.66015625,-0.16959302258170117,-8.14349071027979,8.612061158286437,-5.068325789393416
4.6640625,2.064337970438851,-5.908030562533029,8.439501078205762,-1.7541306907812002
4.66796875,2.8892568438140156,-2.872036937894783,7.268250015869208,-1.3007064268830557
4.671875,2.6842826855937507,-2.8426095042153703,4.077837409628971,-0.529159914099379
4.67578125,3.2156057444323065,0.18141227113661207,3.9373956416495144,0.9925539434118704
4.6796875,3.082181126018832,0.6714079808282796,3.3373570531656416,3.6738598228076738
4.68359375,2.3485542521122875,2.426524758634282,0.14570550604613614,1.4800543328847928
4.6875,3.6015032171386157,6.194801696330277,-0.9236458745816354,3.2885766230930873
4.69140625,4.429174700009332,7.149385465763176,-2.497286785505983,3.0635483555029106
4.6953125,5.676048267427566,6.636199611593575,-3.5275196761131964,3.1190306732786532
4.69921875,6.987770125885197,5.18396675373627,-3.6746741170928003,2.593039779755884
4.703125,6.599728175849226,6.565144286947327,-3.1530482625702616,2.2321220960340105
4.70703125,6.947035118095575,7.07148302992163,-4.727276249983598,4.765451807272605
4.7109375,7.512175383032307,5.350952760590511,-5.962725350012649,3.4274148383845118
4.71484375,5.813398495059332,6.623957819139787,-7.866848841464325,5.1803494503021055
4.71875,4.426166556434591,6.499184751813013,-8.805475753015555,4.967605572401112
4.72265625,0.8620857589260016,7.193718741965774,-8.866021906699327,4.240409183291214
4.7265625,0.8828466414218883,4.8311839551767815,-10.005890008290457,2.3250301019431467
4.73046875,-2.8384646037117114,4.569616063105432,-7.481089076311482,0.7186199204917658
4.734375,-5.555298751898102,2.8306289678205925,-8.862096287551275,-1.5442211323545656
4.73828125,-6.80006267686595,0.1719154663571365,-4.694495147927768,-1.207044571471488
4.7421875,-8.726300880804574,0.35872198286166324,-3.499408689809563,-4.726492208902993
4.74609375,-7.4418164099193636,-2.706987462289047,0.1614507137074982,-6.581130073931073
4.75,-9.69860223485023,-5.611036353531324,1.5888125126388681,-8.194917557654511
4.75390625,-6.536066198536938,-6.2861616199357755,3.7574567475054823,-10.376649952426352
4.7578125,-6.465526234629404,-6.429469471968801,6.375734797451427,-8.56375559899912
4.76171875,-7.035717347113265,-8.015543564844942,4.519087987659515,-9.230620106993284
4.765625,-5.212263180698839,-7.245415929576464,4.547131914471682,-8.498028337344781
4.76953125,-2.471301117457462,-5.53903141431964,6.135364512530802,-4.143156333636172
4.7734375,-1.1013955500751704,-6.169213983891291,4.893790790279499,-4.180297396293584
4.77734375,-2.152732607541683,-2.8743680453341405,4.452470602441564,-1.6754598464676849
4.78125,-1.6458741162946011,-1.829585047241033,3.061885074595397,-0.5192342206944295
4.78515625,-0.25220230602918126,-0.3776655120126083,2.483632411055042,1.0454920215221328
4.7890625,0.9236155661433244,2.1056807355296216,2.0436611377908545,2.969788203464641
4.79296875,1.3615577086512494,1.6658040162281207,1.6087861434949717,1.300795880294166
4.796875,1.793002404957271,3.3675556003869316,2.598719310900895,1.6735352344416936
4.80078125,4.924425807910142,1.0025327770270833,3.019503746732041,3.346255158677348
4.8046875,5.428310543938055,1.319672014225242,1.311402302450904,3.032401683557132
4.80859375,8.60915069686952,2.5656883638322343,1.4665067077095846,6.285322833324135
4.8125,6.805871316630597,-1.2424213582077483,0.8822807934181192,6.349760831960231
4.81640625,7.074688491770213,-0.06688010699543545,-2.7669693779165425,7.738552043629001
4.8203125,5.429989265657734,2.8098223341784054,-3.578161045214999,8.883997508109886
4.82421875,5.282238278568542,2.133658645314884,-3.928156159614851,7.328124912668018
4.828125,3.031434272320072,2.6513970988051367,-4.723233822482586,7.790266880501676
4.83203125,0.8126751747366981,1.0654924154257612,-3.1927208348417953,7.550478418655681
4.8359375,-0.258866375474309,0.856750917270138,-4.1939651526444495,4.004202556885305
4.83984375,-2.316732800074935,-0.061050279391312634,-1.1750363129157155,1.78398035292488
4.84375,-3.4009883814685047,-2.194906566491072,0.5644114572916477,-0.4553184434396293
4.84765625,-3.286762044766297,-2.4067931919155963,1.0362349059298477,-2.2580486749963447
4.8515625,-0.9147456870070243,-3.0341952796517724,4.6244347750911174,-3.4855187443713493
4.85546875,-0.5438819245750701,-4.185343685396931,4.635158270214982,-4.001482004534373
4.859375,-0.2914819910196378,-5.359153025423586,3.8984285292395056,-5.061092112008062
4.86328125,-1.592983783706829,-3.8026605715755197,4.811678067100475,-3.537981536110951
4.8671875,0.10932331958570107,-4.567168975081732,4.475195264142822,-3.291938724640333
4.87109375,1.0184161086853742,0.3972982545411239,1.7329325386889822,-1.896228549335181
4.875,2.1587694666333603,3.5824189387055503,0.770055527363279,-0.3058212477919968
4.87890625,1.3200446216072388,3.1359811049485473,-0.7792858173474715,0.6963051863675913
4.8828125,2.165377510575463,5.227418382734133,-3.285133694878939,-0.4535923322396063
4.88671875,0.023164925528657676,4.236315188316582,-2.4055566412021485,0.5380740855554507
4.890625,2.1111290262106692,6.911073674331395,-3.19348187653702,-0.33525610249686255
4.89453125,0.4576159157492079,6.447518747923187,-3.7747904170201294,-0.2453911819942335
4.8984375,1.450165092950421,6.803762640153531,-3.460269070651261,-1.6103407815296171
4.90234375,2.434116840282803,5.473037061111268,-3.8708415303901558,-0.5604796816307138
4.90625,2.1974167274919716,4.014081577723036,-2.19546986173771,0.8852386911119019
4.91015625,4.102905000011355,4.968362509708324,-5.183567501961215,1.0374403907854786
4.9140625,2.7369850626997496,2.8619350770992975,-4.346953940773997,1.7794871530096992
4.91796875,1.9003900434856913,4.372538018451314,-1.8657343526464332,3.378739413291304
4.921875,-0.5470225945928193,0.8795231651446946,-5.399606135710501,3.1227741068735924
4.92578125,-2.4346732711390078,2.269460880897403,-6.553206590530368,1.68749119555123
4.9296875,-2.659704701389339,0.9075260368926298,-4.064652234800387,0.9786278787861367
4.93359375,-6.92839417670946,-1.633978577454254,-5.908660229898129,0.6041483329587531
4.9375,-7.074720922034555,0.47269101291433624,-0.7339854501241583,-1.8209536081371458
4.94140625,-8.419297265736088,-1.8571632463228798,0.2650641441721358,-3.308995401100641
4.9453125,-8.141742074896932,-5.489621638576314,3.2630962649969373,-6.340870556742514
4.94921875,-7.693330423825071,-7.990266131551008,4.830382575800738,-7.367936978459108
4.953125,-7.393811654502587,-9.455635620901447,7.472924354932874,-6.693420191338246
4.95703125,-6.174661625782086,-7.522844204192374,7.29115778225604,-5.770843621552906
4.9609375,-3.573610376396669,-9.633011812292413,7.64075279049674,-4.4029474807395115
4.96484375,-0.22490866635303086,-8.401284709295604,9.717255592110272,-2.6121793073633284
4.96875,-0.15318471980490225,-7.790382244490149,6.989912385975991,-0.2824841238725977
4.97265625,-1.0013040642538193,-6.63067304480031,7.0324392680428875,1.3433289680960285
4.9765625,1.4873222849225616,-2.8432517686777805,4.334848472944975,0.6927925519786229
4.98046875,2.590327473785303,-0.7392932160334279,4.725220399295646,3.4581100158085167
4.984375,3.4888090754862526,1.5138830334620943,3.10868359497352,3.9073621575958337
4.98828125,3.0223275150359874,2.4806860837925515,2.5833153681017373,4.476603499367441
4.9921875,3.4315203806382635,1.8793539080074753,1.7093353937247817,4.594634191707201
4.99609375,7.352624277748356,6.27911396014537,1.8903556741759044,5.618477654608872
5.0,6.994121915035852,2.896495816970318,2.152765010796796,6.42447738997325
5.00390625,7.4987409099271956,3.7096233526196714,-2.3387576064209146,6.763211344509844
5.0078125,8.95012862271544,1.0307012200056618,-2.722363882265503,6.65236182612058
5.01171875,7.643005288239586,5.385195610074126,-3.5884237058381427,6.72300836556876
5.015625,7.558971546265869,5.221948086446764,-2.0382041848234382,7.748107918421674
5.01953125,6.095319655037476,3.397416612771867,-5.678079029890914,6.310292558923689
5.0234375,4.503829227021404,3.6776246785389635,-6.461179802545285,7.150810046915591
5.02734375,1.7367827751791136,4.914818330359217,-8.19416813450913,5.548943294311465
5.03125,-1.1908862191252951,4.536065477625664,-7.397110164727313,5.834727171819061
5.03515625,-2.087135652903076,4.373729375396467,-7.121429671093014,1.979233899828068
5.0390625,-5.254050108398159,3.280664537041935,-4.134173280852508,-0.7107542993580214
5.04296875,-4.833334532589495,1.6672716846406588,-2.91001972002988,-3.7477535073913355
5.046875,-5.561293417910472,-2.2445193986741776,-0.33174578563605217,-4.5457878064368975
5.05078125,-5.69531376979026,-3.637757792538829,-0.8590950084982871,-5.944708659061937
5.0546875,-3.499361542259426,-3.309941604149558,1.3331224778915383,-7.762147459081913
5.05859375,-4.348253270530513,-4.328951286983362,4.646136560430183,-9.622575434206981
5.0625,-1.6287839266651905,-3.200508183604781,4.066699777697446,-8.329244935455467
5.06640625,-3.105610169053323,-2.9466499088317484,3.473978568050096,-7.289995826711387
5.0703125,-2.575157697668975,-3.704059774619128,2.8715233278621923,-6.347229661854865
5.07421875,-2.121467905029826,-0.7495799451888798,2.051791745311935,-3.439297598318359
5.078125,-2.887516206580346,-0.2625820318287725,0.43157114273066915,-3.29021493690676
5.08203125,-2.32766663261891,2.1034773051220803,-0.44397735793791904,-3.139333533596145
5.0859375,-0.4973753737116322,2.9990960210474373,-0.9770116598582691,-2.278928719075324
5.08984375,-0.5202500653600202,2.4806035460940645,0.6343703961481582,-0.12973390246884908
5.09375,-0.7757290714969249,2.349736160197854,0.4533839438107553,-1.0714040199195725
5.09765625,-1.5744279823471543,3.029492061619027,-0.05703784335416129,-1.1242758385253022
5.1015625,0.7592429220212131,1.3105354336059247,1.0682572474560592,0.43832420390826043
5.10546875,2.1489419882416785,1.6418898876583288,-0.22344660122507015,1.2748438744514026
5.109375,4.140242402849423,0.1527350243431997,0.7750136802264507,2.696656358511384
5.11328125,5.033092074463472,1.329829533488463,-2.3823707382866597,3.7398088996268974
5.1171875,0.6928299218293787,0.8293263229515916,-4.750583169143686,4.993005292099607
5.12109375,0.9668246970730261,-0.8196951629419912,-4.549877973088295,5.752873490168768
5.125,1.00122448398321,-0.20578295476740668,-1.9661922892209391,5.996866497939474
5.12890625,-2.354359221651732,-0.5384943843107852,-2.4112132695029267,5.78010575402912
5.1328125,-3.2490695752731833,-0.21347543443178274,-1.7642580584559024,2.5987316091001844
5.13671875,-4.724726903396821,-0.2525191983049555,-1.950501268951823,3.9772515631875427
5.140625,-4.042630023325353,-3.674184476231701,0.7493554045199574,-0.057497659159951364
5.14453125,-4.67432392557147,-5.777574770152196,3.8360375115806606,-0.08516265628858677
5.1484375,-2.679452910047635,-6.045884278897818,5.165123495356193,-3.1279126382943447
5.15234375,-2.9172555567616465,-7.216812504985225,6.433286823097057,-4.266025715484945
5.15625,-3.8215566927260554,-7.929160292185515,8.68374283630331,-5.0768288551935985
5.16015625,0.24263469672626758,-8.681776051377984,8.989944999973066,-3.596962528984295
5.1640625,2.47770875038937,-4.3867690770892125,7.005539371817839,-2.469888349371577
5.16796875,2.9800165391278766,-5.050446366713861,7.389352575685745,-0.26177347669985246
5.171875,2.984508174141589,-3.531574078656017,6.7202606403087835,2.167134847408434
5.17578125,2.253076640156552,-1.2123546729660355,3.4797406832610127,3.010349826974826
5.1796875,3.02700148616601,0.8459291520149635,0.30946402255210304,2.0959225576687994
5.18359375,3.6501372815312543,3.7131106314141515,1.0908495014421273,0.6987412878823667
5.1875,5.737061266188376,4.800049233274266,0.3758576230603963,0.5604807102605052
5.19140625,5.605174819598371,6.6643687136826495,-0.8604727494277128,1.6434672116488545
5.1953125,3.612037740817052,8.365478026946906,-4.473096559418325,0.30389538779320713
5.19921875,6.093668001638771,6.321509576780228,-4.004084765999333,1.951256069937223
5.203125,6.811835929015969,8.034061161076352,-5.307746208368537,1.6688569537986468
5.20703125,5.414158807945442,6.38577276845989,-4.564563996812423,3.0117939676321726
5.2109375,7.232354181010486,6.228390066599283,-6.877835101239994,3.369564812397399
5.21484375,5.301629196874039,7.506000973612489,-5.301787701845921,5.6396874141795825
5.21875,3.3547942800940707,8.36900098579602,-5.8916005068372295,4.980996283406813
5.22265625,-0.9193945737455711,7.30190507575205,-8.921271208307731,4.404300833834079
5.2265625,-0.7390148284410542,4.947734633120647,-8.60995339350246,3.1440573091354382
5.23046875,-1.9402473116530832,2.3833548873809005,-8.3271415012153,2.434292938826644
5.234375,-6.820800374061774,1.7652481538092786,-6.779960224222696,-0.7228789388865878
5.23828125,-4.846522700504002,1.182449605822772,-6.148267823235577,-3.8081215555183263
5.2421875,-8.912980051677259,-0.9054690105304671,-1.0386617358467714,-5.9596653476727175
5.24609375,-10.192192238001713,-1.7825381128540516,0.05980069264748725,-5.294931945554497
5.25,-9.281264842905728,-6.656929991566021,2.6327534812671645,-9.19553832534731
5.25390625,-5.853481836665232,-6.148483716884565,3.8661200954270547,-8.053644217257947
5.2578125,-7.646985982437572,-8.366198440706725,6.073361027799661,-8.923338604964426
5.26171875,-5.44666490526752,-6.819340301498304,7.799892473911332,-7.926368621738841
5.265625,-4.482843929905984,-7.444026884763672,6.351052194561569,-6.955287268827954
5.26953125,-3.539019609498003,-7.119779073379891,6.241240357352114,-5.76241302483417
5.2734375,-1.6108171804334197,-4.497530357574927,6.604584851943134,-3.734480748993329
5.27734375,-1.743335581789163,-1.7399084676372143,2.7304236833142426,-2.2243907400505725
5.28125,-0.09778299046181105,-3.7873913870554157,3.339337115172076,-1.7090322049198252
5.28515625,0.15454567977843436,-0.29439970052435915,3.988976891605719,-1.1822250653085122
5.2890625,0.3913304933491947,0.7801598931276236,1.4210920555586595,-0.6568027763522428
5.29296875,1.2752277008763384,3.2518111210824507,1.5767998766836073,0.24400932615200666
5.296875,3.919254776414255,-1.2950459629344167,3.1144355784075834,1.3693183174182066
5.30078125,4.126408295943293,0.8395044806933305,2.6486485239787485,3.491891017813166
5.3046875,4.548425203228268,2.1098908260510623,1.3063608906729254,3.786771501749591
5.30859375,7.309411040143671,2.901430459323984,0.09860671951682032,5.677822401334816
5.3125,6.1442065396746,0.7242388649093547,0.13016134152030923,6.121456501825665
5.31640625,6.24651694065288,0.3620284832587225,-1.4165591187785012,6.703965740434343
5.3203125,6.105023550472738,2.0888839680841724,-2.8704316943972703,8.851691661579867
5.32421875,3.0836508274500725,0.7228454529589994,-3.9443182030543458,8.20217651357675
5.328125,0.9805024592963902,2.7032967390703906,-3.7066050993888306,8.188507338531483
5.33203125,-1.50233207355884,1.3540144539107244,-3.9345246830140708,6.4676515420918435
5.3359375,-1.9314985877215294,1.260803763547045,-3.104165234675609,3.366722884792543
5.33984375,-3.3117985447760216,0.057190745489021755,-2.124069725564378,0.5205262879289987
5.34375,-2.3147904497520644,-1.3747581259556958,-0.2883826288137499,1.2255800390422575
5.34765625,-4.58158822898657,-2.856841664330857,2.104524909112152,-3.2376359289123204
5.3515625,-1.8987197601171606,-4.366062243412259,2.8985964800288433,-4.351468769384682
5.35546875,-1.1383719652761948,-2.9308757035500963,5.027871288507776,-4.128638586206298
5.359375,0.865658218418921,-4.92762195882604,5.360007918334738,-4.19866596447594
5.36328125,-0.916927308775431,-4.160719891470429,3.6587786656627843,-2.754605612041217
5.3671875,1.1582982430128077,-2.7207450680195637,3.697959290240759,-4.015766332976691
5.37109375,1.226832518707087,-0.1773514670863796,2.249307626203478,-3.3677463696226657
5.375,1.0376460786834087,1.4441121749191759,-0.6839567046487249,-0.3922437382811912
5.37890625,3.2391342531347247,1.5939796741214936,-0.572216763539412,-1.0782335965403402
5.3828125,0.8756991131871101,4.961386573919152,-1.4850840803737846,1.3459378174167211
5.38671875,-0.43445902172128537,6.9006940124308365,-4.334088614208722,0.25991519492486514
5.390625,-0.027602483258905686,8.075182218761475,-3.664556911914369,-0.5966370190576289
5.39453125,1.328742953875625,7.1418832379857005,-3.4129188014108762,-0.36401207888980514
5.3984375,3.057329703475439,5.9745375652060035,-5.133608921786756,-0.8474242979160149
5.40234375,1.986165660528985,4.880142942614431,-3.033115329389524,0.30456723763178484
5.40625,2.9659148746132975,3.541735256307397,-4.25916253131705,1.228462786871836
5.41015625,3.413446650485674,2.996403307763525,-5.397015738409486,1.9303269012874007
5.4140625,2.210282770974145,3.9050900712803083,-3.447232628444369,1.511875315057533
5.41796875,1.8987193798696618,2.7681763158562585,-6.526344500256895,3.401348448290535
5.421875,1.097199880248092,2.7926738848650787,-5.858061882313233,3.05374264354801
5.42578125,-2.6938174933001884,1.451309004649544,-6.618974325826809,2.5644317110300316
5.4296875,-3.728791856372424,-0.1283258845777362,-5.279761194648387,1.551880573731159
5.43359375,-6.941650889280266,0.6481642847046477,-6.854341688825819,-0.15873293236468283
5.4375,-8.390136399024737,-0.3161908797494555,-2.4396601158675364,-2.2621642871237575
5.44140625,-9.338476908221752,-3.83191593639042,0.3254049826265401,-4.881115087784856
5.4453125,-10.217507829399691,-4.071006183191556,2.821767097902939,-4.028300465658267
5.44921875,-8.381723612646601,-7.231245096534173,5.355579945764888,-5.225422445352061
5.453125,-7.577774697492025,-9.457960752444372,8.39051381470687,-6.389153548715446
5.45703125,-5.523852308477898,-10.823091042117992,8.915846950574187,-5.542968994254714
5.4609375,-2.58714505686007,-11.192034387793859,10.200403796811253,-4.763674905965119
5.46484375,-1.451136194797165,-9.393189248592288,8.118808145124152,-3.6583255160527512
